File: EDX Back Ups and Old Files/Spectra copy 3.3.23/Samples/Low pH SF 25C 9d/10.0.txt
0.0
50.0
-33.0
-38.0
10.0
0.0
-0.67
-1.33
-1.0
1.0
0.67
-0.67
1.0
-0.33
-0.33
-0.67
0.67
0.0
1.0
2.33
1.67
3.33
3.67
3.67
5.33
-1.33
2.0
-2.0
4.67
4.0
1.33
-1.33
2.67
-1.67
12.0
-3.0
1.33
-3.33
10.0
1.67
4.0
1.33
1.0
2.33
3.67
-1.0
3.0
6.67
-2.67
-1.33
4.0
-6.33
0.33
-3.0
2.67
-1.33
-0.67
2.67
-2.0
11.67
2.33
-1.0
1.0
4.0
4.67
-0.33
4.0
7.33
-1.33
4.0
3.33
-6.67
3.33
2.33
1.0
3.33
2.33
4.33
-1.0
2.33
-1.67
1.67
1.0
0.67
1.67
5.33
-1.33
-1.67
1.0
2.0
0.67
1.0
0.33
-1.33
-2.67
-1.67
-3.67
1.0
0.33
-3.67
0.0
2.0
4.0
-1.0
-0.67
-10.67
4.33
3.0
-0.33
4.0
-2.33
-2.33
-5.0
3.0
1.0
-3.0
-3.67
4.33
2.67
2.0
5.33
3.67
2.0
-0.33
8.33
-1.67
2.0
3.33
-2.0
11.67
2.0
7.67
29.0
65.33
82.67
67.33
19.33
0.33
11.0
1.67
30.33
73.0
101.33
41.0
6.33
9.0
10.0
21.0
44.67
32.67
30.67
54.33
56.0
73.0
63.67
29.33
18.0
15.67
10.0
-5.0
3.33
14.33
9.67
34.0
18.33
11.0
6.33
16.33
5.33
76.0
161.67
174.67
103.67
27.33
30.67
38.67
24.33
39.67
60.33
35.33
26.0
25.0
6.33
8.33
8.67
7.67
17.33
21.67
31.67
15.33
9.67
10.67
7.0
8.33
19.0
20.33
4.67
22.67
-0.33
15.0
13.0
9.67
1.33
1.0
0.67
1.0
10.33
12.33
12.67
-1.0
4.0
8.0
-5.0
7.33
3.67
3.33
15.0
-3.33
12.33
9.0
11.0
9.0
6.33
13.0
2.0
13.33
17.67
10.67
7.67
-0.67
-1.33
-2.0
14.33
11.0
14.0
3.33
5.0
10.33
6.67
6.33
-1.67
3.0
3.33
8.0
-6.33
-3.67
8.0
10.67
20.0
25.0
7.0
8.0
7.67
-1.0
-0.33
4.33
-5.33
3.33
1.33
5.67
4.33
-3.33
-4.0
1.67
6.0
1.33
0.33
4.33
4.33
-1.0
5.0
-2.0
3.0
-2.67
3.33
2.33
-7.0
1.33
3.67
-0.33
8.33
4.0
3.67
-1.33
3.0
-3.33
-3.67
-6.0
-0.67
-0.67
7.33
-3.67
-2.67
0.67