File: EDX Back Ups and Old Files/Spectra copy 3.3.23/Samples/Low pH SF 25C 9d/10.5.txt
0.0
60.0
-3.0
-32.0
7.0
1.0
0.33
-1.33
-1.0
1.0
-0.33
-0.67
0.0
2.67
0.67
-0.67
0.67
0.0
-1.0
-0.67
6.67
-0.67
-1.33
2.67
3.33
1.67
0.0
2.0
-5.33
5.0
5.33
-0.33
-6.33
2.33
3.0
11.0
-0.67
-4.33
-1.0
11.67
3.0
5.33
2.0
1.33
0.67
-2.0
3.0
0.67
0.33
0.67
5.0
-1.33
-0.67
1.0
8.67
-0.33
-3.67
0.67
-3.0
7.67
2.33
1.0
2.0
8.0
5.67
-3.33
-2.0
0.33
-3.33
4.0
2.33
-5.67
-1.67
-2.67
1.0
0.33
-4.67
3.33
-2.0
-0.67
2.33
-3.33
-1.0
-0.33
-0.33
2.33
0.67
4.33
-1.0
3.0
-4.33
0.0
1.33
-0.33
0.33
0.33
-7.67
0.0
0.33
-1.67
-3.0
-4.0
6.0
0.0
-1.67
-4.67
0.33
2.0
-7.33
-1.0
5.67
2.67
-4.0
1.0
-4.0
0.0
-9.67
0.33
-2.33
2.0
0.33
8.67
4.0
5.67
-1.67
4.33
0.0
-0.67
1.0
-0.33
3.0
10.67
14.0
60.33
87.67
72.33
44.33
23.33
6.0
6.67
25.33
65.0
50.33
7.0
11.33
17.0
4.0
20.0
26.67
25.67
45.67
80.33
83.0
60.0
44.67
54.33
38.0
16.67
18.0
3.0
10.33
12.33
9.67
20.0
16.33
18.0
19.33
10.33
12.33
39.0
70.67
56.67
42.67
21.33
15.67
26.67
45.33
33.67
31.33
35.33
15.0
17.0
20.33
3.33
11.67
9.67
19.33
29.67
20.67
32.33
35.67
24.67
17.0
7.33
22.0
25.33
6.67
12.67
-1.33
9.0
16.0
4.67
13.33
7.0
16.67
12.0
-0.67
8.33
11.67
10.0
9.0
15.0
1.0
3.33
16.67
10.33
13.0
3.67
13.33
4.0
15.0
5.0
7.33
20.0
7.0
12.33
16.67
10.67
0.67
10.33
1.67
4.0
14.33
-6.0
3.0
9.33
23.0
10.33
3.67
2.33
-1.67
3.0
14.33
-2.0
-3.33
2.33
-1.0
-5.33
7.0
4.0
-1.0
12.0
15.67
-3.0
1.67
3.33
-4.33
8.33
5.33
5.67
-0.67
5.67
-8.0
5.67
5.0
2.33
2.33
1.33
5.33
1.0
-1.0
1.0
3.0
2.33
6.33
6.33
-4.0
0.33
7.67
2.67
4.33
5.0
-2.33
-3.33
-1.0
1.67
-0.67
-2.0
6.33
-0.67
3.33
-2.67
0.33
-2.33