File: EDX Back Ups and Old Files/Spectra copy 3.3.23/Samples/Low pH SF 25C 9d/11.0.txt
0.0
82.0
-51.0
-8.0
1.0
1.0
0.33
-1.33
-1.0
0.0
-0.33
-0.67
2.0
-0.33
-0.33
0.33
1.67
-3.0
1.0
0.33
-1.33
-0.67
-0.33
4.67
2.33
5.67
5.0
11.0
3.67
5.0
0.33
8.67
0.67
2.33
3.0
2.0
5.33
-2.33
2.0
7.67
1.0
1.33
2.0
-0.67
3.67
3.0
8.0
2.67
-3.67
0.67
4.0
3.67
-3.67
0.0
2.67
4.67
-2.67
-5.33
-2.0
3.67
1.33
-5.0
-3.0
0.0
-1.33
0.67
7.0
2.33
0.67
7.0
1.33
-6.67
5.33
-0.67
3.0
-3.67
2.33
-0.67
0.0
-0.67
-0.67
0.67
-3.0
3.67
-0.33
3.33
-0.33
2.33
3.0
-1.0
-0.33
-2.0
-2.67
-3.33
0.33
0.33
-0.67
1.0
-6.67
-2.67
-1.0
3.0
0.0
-5.0
-2.67
-5.67
-1.67
5.0
5.67
5.0
-5.33
2.67
-1.0
-3.0
6.0
-7.0
-7.67
6.33
-4.33
0.0
5.33
1.67
-1.0
5.67
1.33
18.33
-1.0
-3.67
8.0
3.67
1.0
2.67
11.0
19.33
63.67
33.33
20.33
5.33
20.0
8.67
31.33
49.0
32.33
14.0
6.33
6.0
1.0
25.0
36.67
14.67
34.67
86.33
100.0
49.0
36.67
26.33
23.0
9.67
17.0
6.0
8.33
6.33
3.67
13.0
24.33
10.0
13.33
20.33
34.33
113.0
317.67
339.67
131.67
37.33
15.67
23.67
38.33
46.67
53.33
46.33
28.0
24.0
32.33
2.33
11.67
30.67
17.33
30.67
50.67
49.33
43.67
13.67
35.0
26.33
26.0
40.33
16.67
17.67
9.67
19.0
13.0
3.67
20.33
3.0
14.67
-8.0
13.33
9.33
9.67
-6.0
2.0
8.0
0.0
7.33
11.67
-1.67
8.0
2.67
3.33
8.0
9.0
7.0
14.33
6.0
7.0
13.33
3.67
6.67
3.67
4.33
3.67
6.0
14.33
-1.0
0.0
12.33
4.0
7.33
3.67
7.33
5.33
4.0
11.33
7.0
-0.33
5.33
1.0
-5.33
14.0
6.0
10.0
5.0
10.67
9.0
6.67
10.33
0.67
-3.67
-1.67
9.67
-5.67
5.67
4.0
1.67
4.0
4.33
7.33
-0.67
3.33
-3.0
13.0
1.0
-3.0
1.33
4.33
-4.67
0.0
2.33
2.67
-1.33
3.33
5.0
4.67
-1.33
0.0
3.67
5.33
-1.0
1.33
-0.67
4.33
1.33
-0.67
1.67