File: EDX Back Ups and Old Files/Spectra copy 3.3.23/Samples/Low pH SF 25C 9d/11.25.txt
0.0
58.0
-58.0
-9.0
1.0
2.0
0.33
-1.33
-1.0
0.0
-0.33
-0.67
0.0
1.67
1.67
1.33
0.67
1.0
0.0
-0.67
-5.33
-1.67
1.67
4.67
3.33
-3.33
-2.0
11.0
5.67
3.0
-0.67
1.67
-0.33
3.33
6.0
8.0
5.33
2.67
-2.0
5.67
7.0
4.33
5.0
-0.67
-1.33
-2.0
-2.0
-2.33
-2.67
-6.33
3.0
0.67
3.33
-3.0
5.67
-1.33
0.33
2.67
-2.0
5.67
-4.67
1.0
3.0
4.0
1.67
2.67
5.0
6.33
-1.33
6.0
4.33
-4.67
-0.67
2.33
1.0
1.33
-3.67
6.33
-1.0
-0.67
0.33
0.67
1.0
0.67
4.67
2.33
2.67
0.33
1.0
0.0
-0.33
-5.0
1.33
3.67
-1.67
-1.67
-4.67
0.0
0.33
-2.67
-1.0
0.0
1.0
4.0
-3.67
-7.67
-0.67
-1.0
-0.33
6.0
0.67
1.67
-3.0
-3.0
8.0
2.0
-3.67
4.33
0.67
1.0
2.33
-0.33
8.0
1.67
7.33
2.33
7.0
13.33
9.0
10.67
4.0
10.67
7.0
39.33
65.67
19.33
11.33
1.33
11.0
11.67
23.33
25.0
35.33
10.0
7.33
5.0
11.0
11.0
22.67
19.67
33.67
58.33
63.0
51.0
27.67
18.33
14.0
11.67
11.0
6.0
10.33
18.33
19.67
22.0
12.33
5.0
15.33
12.33
33.33
154.0
271.67
270.67
98.67
37.33
24.67
33.67
40.33
50.67
66.33
53.33
36.0
39.0
10.33
14.33
9.67
11.67
25.33
11.67
23.67
19.33
17.67
12.67
19.0
15.33
13.0
31.33
20.67
18.67
6.67
9.0
9.0
2.67
4.33
20.0
5.67
0.0
0.33
0.33
21.67
8.0
4.0
12.0
-9.0
-1.67
-0.33
7.33
7.0
13.67
7.33
16.0
3.0
6.0
6.33
11.0
6.0
13.33
5.67
21.67
8.67
11.33
3.67
3.0
8.33
-7.0
1.0
0.33
13.0
1.33
5.67
2.33
4.33
5.0
13.33
7.0
4.67
-3.67
1.0
3.67
11.0
4.0
1.0
3.0
4.67
5.0
6.67
4.33
-5.33
1.33
0.33
3.67
9.33
6.67
-4.0
3.67
4.0
1.33
4.33
11.33
5.33
-1.0
2.0
3.0
0.0
6.33
3.33
-3.67
1.0
3.33
1.67
4.67
7.33
4.0
2.67
-4.33
-4.0
5.67
3.33
0.0
-0.67
0.33
5.33
-3.67
-1.67
-3.33