File: EDX Back Ups and Old Files/Spectra copy 3.3.23/Samples/Low pH SF 25C 9d/11.5.txt
0.0
36.0
-21.0
-27.0
-2.0
-3.0
0.33
-1.33
-1.0
0.0
-0.33
-0.67
0.0
0.67
-0.33
0.33
-0.33
-4.0
0.0
-1.67
-0.33
-1.67
-0.33
-2.33
1.33
-2.33
-1.0
3.0
-1.33
9.0
1.33
-4.33
4.67
3.33
3.0
6.0
4.33
-0.33
1.0
4.67
3.0
-2.67
-4.0
3.33
2.67
2.0
-2.0
-1.33
2.33
-2.33
6.0
-2.33
-2.67
0.0
4.67
2.67
-0.67
1.67
-2.0
7.67
-0.67
-2.0
1.0
-2.0
-3.33
1.67
3.0
6.33
0.67
3.0
0.33
1.33
-2.67
2.33
-2.0
1.33
-0.67
2.33
2.0
0.33
2.33
-1.33
1.0
2.67
3.67
1.33
-2.33
4.33
-3.0
-2.0
1.67
3.0
-3.67
-2.33
1.33
0.33
-3.67
3.0
-4.67
3.33
3.0
3.0
0.0
2.0
0.33
-5.67
2.33
-3.0
6.67
3.0
3.67
-3.33
2.0
-7.0
-3.0
4.0
-6.67
-3.67
2.67
8.0
1.33
1.67
0.0
4.67
-3.67
2.33
-2.0
-3.67
17.0
5.67
-3.0
13.67
10.0
17.33
38.67
41.33
47.33
14.33
10.0
2.67
16.33
30.0
18.33
13.0
5.33
17.0
8.0
8.0
16.67
27.67
33.67
34.33
21.0
15.0
18.67
33.33
22.0
8.67
10.0
0.0
3.33
13.33
7.67
17.0
8.33
19.0
-0.67
31.33
26.33
59.0
88.67
91.67
37.67
36.33
12.67
16.67
33.33
44.67
84.33
76.33
28.0
37.0
18.33
5.33
7.67
5.67
10.33
20.67
14.67
23.33
16.67
20.67
7.0
23.33
29.0
34.33
20.67
14.67
4.67
10.0
17.0
-11.33
5.33
13.0
19.67
4.0
6.33
6.33
12.67
6.0
-5.0
-1.0
3.0
8.33
9.67
11.33
-1.0
-5.33
19.33
11.0
16.0
9.0
-13.67
9.0
-6.0
8.33
3.67
18.67
11.67
6.33
14.67
10.0
-2.67
3.0
-4.0
7.33
3.0
1.33
7.67
-4.67
-3.67
6.0
12.33
1.0
-7.33
7.33
2.0
-4.33
12.0
17.0
-4.0
-4.0
4.67
3.0
4.67
6.33
-4.33
2.33
6.33
2.67
4.33
1.67
1.0
-0.33
1.0
3.33
4.33
-1.67
12.33
-3.0
16.0
-1.0
0.0
7.33
3.33
6.33
-4.0
0.33
1.67
-0.33
2.33
1.0
3.67
-2.33
0.0
1.67
1.33
-2.0
-0.67
5.33
-0.67
-1.67
-0.67
-0.33