File: EDX Back Ups and Old Files/Spectra copy 3.3.23/Samples/Low pH SF 25C 9d/6.25.txt
0.0
-17.0
-60.0
-24.0
-7.0
-1.0
-0.67
-1.33
-1.0
0.0
-0.33
1.33
2.0
1.67
1.67
0.33
-0.33
-2.0
3.0
-2.67
6.67
1.33
6.67
3.67
7.33
-1.33
-2.0
4.0
-1.33
3.0
1.33
1.67
2.67
8.33
3.0
0.0
16.33
5.67
8.0
6.67
6.0
4.33
4.0
5.33
4.67
4.0
5.0
6.67
5.33
0.67
5.0
1.67
-0.67
-2.0
4.67
2.67
1.33
-0.33
-1.0
11.67
-0.67
2.0
-1.0
2.0
-1.33
3.67
6.0
-0.67
2.67
3.0
5.33
-4.67
-0.67
0.33
6.0
2.33
0.33
3.33
6.0
4.33
-2.67
-3.33
1.0
-0.33
5.67
5.33
5.67
0.33
-2.0
3.0
0.67
-2.0
0.33
-4.33
1.33
-2.67
-0.67
0.0
0.33
-3.67
0.0
1.0
-2.0
1.0
-3.67
-2.67
-2.67
3.0
-3.33
6.0
-0.33
-2.33
-1.0
-1.0
3.0
5.0
3.33
-3.67
-7.33
-1.0
-1.67
-0.33
-6.0
3.67
-5.67
3.33
-4.0
-2.67
3.0
13.67
-1.0
12.67
6.0
11.33
14.67
11.33
0.33
0.33
11.0
15.67
66.33
36.0
19.33
16.0
11.33
22.0
8.0
15.0
12.67
19.67
22.67
21.33
10.0
12.0
10.67
16.33
21.0
11.67
4.0
-1.0
0.33
7.33
18.67
12.0
16.33
0.0
4.33
8.33
24.33
70.0
97.67
70.67
36.67
10.33
17.67
5.67
32.33
20.67
44.33
43.33
23.0
25.0
4.33
8.33
9.67
4.67
14.33
20.67
22.67
23.33
24.67
19.67
20.0
3.33
19.0
17.33
6.67
19.67
3.67
17.0
2.0
9.67
4.33
7.0
20.67
-4.0
6.33
5.33
16.67
3.0
1.0
16.0
0.0
4.33
13.67
6.33
16.0
5.67
6.33
8.0
8.0
11.0
8.33
27.0
12.0
23.33
21.67
-1.33
18.67
14.33
-0.33
11.0
16.33
10.0
1.0
6.33
4.0
6.33
6.67
0.33
-4.67
10.0
6.33
12.0
-2.33
10.33
4.0
-2.33
16.0
8.0
3.0
6.0
-3.33
4.0
-5.33
6.33
10.67
-1.67
5.33
4.67
-6.67
4.67
-5.0
1.67
-1.0
7.33
-0.67
7.33
-0.67
-3.0
10.0
-4.0
1.0
2.33
7.33
-2.67
-2.0
-2.67
3.67
3.67
4.33
7.0
6.67
-4.33
0.0
6.67
1.33
5.0
3.33
3.33
11.33
5.33
-2.67
-2.33