File: EDX Back Ups and Old Files/Spectra copy 3.3.23/Samples/Low pH SF 25C 9d/6.5.txt
0.0
92.0
49.0
-15.0
3.0
-1.0
-0.67
-1.33
-1.0
0.0
-0.33
-0.67
0.0
-0.33
-0.33
2.33
0.67
2.0
4.0
1.33
3.67
-0.67
5.67
0.67
-2.67
-2.33
3.0
8.0
0.67
6.0
-0.67
3.67
2.67
5.33
5.0
-2.0
4.33
0.67
1.0
4.67
-1.0
1.33
3.0
2.33
9.67
2.0
4.0
-2.33
2.33
4.67
5.0
3.67
0.33
0.0
3.67
-1.33
-1.67
2.67
-2.0
7.67
2.33
-1.0
1.0
5.0
1.67
2.67
2.0
4.33
7.67
6.0
4.33
-5.67
5.33
3.33
2.0
1.33
7.33
-1.67
2.0
2.33
6.33
-0.33
0.0
1.67
0.67
1.33
-0.33
0.33
2.0
0.0
1.67
0.0
2.33
5.67
0.33
-0.67
-4.67
2.0
2.33
-3.67
-3.0
0.0
1.0
2.0
-2.67
-5.67
2.33
-1.0
0.67
4.0
2.67
-1.33
-5.0
2.0
-1.0
2.0
-4.67
1.33
-6.33
-1.0
-4.67
-1.33
-5.0
1.67
-0.67
-2.67
-1.0
0.33
-3.0
4.67
5.0
13.67
2.0
0.33
20.67
9.33
11.33
0.33
23.0
16.67
52.33
36.0
5.33
2.0
4.33
20.0
12.0
6.0
16.67
7.67
13.67
12.33
22.0
17.0
16.67
7.33
18.0
8.67
16.0
9.0
5.33
7.33
8.67
12.0
7.33
8.0
6.33
9.33
23.33
63.0
102.67
78.67
34.67
8.33
32.67
37.67
71.33
56.67
75.33
56.33
21.0
23.0
13.33
9.33
5.67
6.67
16.33
23.67
8.67
32.33
23.67
17.67
17.0
-0.67
9.0
9.33
13.67
24.67
0.67
23.0
15.0
7.67
1.33
-1.0
0.67
-6.0
12.33
6.33
3.67
3.0
2.0
18.0
0.0
9.33
9.67
17.33
10.0
12.67
6.33
8.0
7.0
15.0
8.33
27.0
3.0
20.33
18.67
10.67
15.67
10.33
3.67
12.0
13.33
15.0
13.0
12.33
-3.0
8.33
14.67
3.33
11.33
4.0
11.33
12.0
-2.33
-4.67
3.0
-5.33
5.0
1.0
0.0
6.0
1.67
5.0
7.67
2.33
-3.33
0.33
3.33
1.67
-3.67
2.67
0.0
6.67
2.0
-2.67
6.33
7.33
2.33
2.0
4.0
-2.0
8.0
3.33
5.33
-0.67
-3.0
-0.67
1.67
3.67
5.33
6.0
1.67
1.67
0.0
4.67
-0.67
2.0
-0.67
-1.67
4.33
1.33
1.33
-2.33