File: EDX Back Ups and Old Files/Spectra copy 3.3.23/Samples/Low pH SF 25C 9d/7.25.txt
0.0
-44.0
20.0
-10.0
-4.0
0.0
0.33
-1.33
-1.0
1.0
-0.33
0.33
1.0
-0.33
0.67
2.33
-0.33
-2.0
2.0
-1.67
-5.33
-1.67
-0.33
6.67
7.33
-0.33
-2.0
5.0
1.67
1.0
-1.67
-0.33
-1.33
4.33
3.0
0.0
1.33
-4.33
9.0
1.67
5.0
-0.67
4.0
6.33
7.67
5.0
3.0
1.67
4.33
1.67
8.0
3.67
0.33
0.0
5.67
-0.33
3.33
4.67
1.0
5.67
-1.67
-2.0
3.0
2.0
4.67
3.67
1.0
1.33
-4.33
6.0
1.33
-6.67
-1.67
6.33
2.0
-0.67
5.33
4.33
0.0
6.33
2.33
-2.33
0.0
3.67
-1.33
5.33
-3.33
2.33
3.0
-4.0
3.67
1.0
-3.67
0.67
4.33
-0.67
-6.67
-1.0
-2.67
-1.67
-6.0
0.0
4.0
-1.0
0.33
-8.67
-0.67
-3.0
-2.33
1.0
1.67
-2.33
-4.0
2.0
8.0
-4.0
-7.67
1.33
-0.33
-3.0
1.33
-4.33
3.0
0.67
-2.67
8.33
0.0
6.33
1.0
3.67
5.0
-3.33
10.0
25.33
42.67
63.33
21.33
-7.67
20.0
9.67
26.33
21.0
13.33
9.0
9.33
4.0
10.0
12.0
15.67
2.67
23.67
35.33
37.0
17.0
1.67
20.33
4.0
9.67
12.0
13.0
3.33
16.33
17.67
11.0
10.33
0.0
0.33
2.33
24.33
35.0
74.67
88.67
76.67
38.33
20.67
71.67
94.33
56.67
37.33
30.33
23.0
21.0
12.33
9.33
7.67
8.67
9.33
14.67
31.67
17.33
35.67
17.67
15.0
9.33
13.0
10.33
6.67
3.67
6.67
30.0
2.0
3.67
-3.67
5.0
4.67
4.0
6.33
14.33
21.67
10.0
7.0
7.0
11.0
-3.67
15.67
14.33
13.0
5.67
8.33
8.0
14.0
12.0
-4.67
11.0
1.0
2.33
26.67
17.67
9.67
15.33
-1.33
1.0
17.33
8.0
15.0
11.33
6.0
13.33
6.67
6.33
-0.67
8.0
13.33
13.0
-1.33
5.33
1.0
-7.33
12.0
3.0
-8.0
-2.0
3.67
8.0
3.67
13.33
1.67
1.33
-0.67
5.67
-1.67
6.67
4.0
-2.33
10.0
6.33
2.33
0.33
3.33
5.0
5.0
1.0
0.0
0.33
8.33
7.33
1.0
-0.67
12.67
-3.33
6.33
3.0
-3.33
4.67
6.0
4.67
1.33
4.0
1.33
0.33
3.33
-0.67
2.33
-2.33