File: EDX Back Ups and Old Files/Spectra copy 3.3.23/Samples/Low pH SF 25C 9d/7.5.txt
0.0
45.0
-37.0
-29.0
-5.0
0.0
-0.67
-1.33
-1.0
1.0
-0.33
-0.67
1.0
2.67
0.67
0.33
-0.33
1.0
2.0
1.33
0.67
-0.67
10.67
9.67
7.33
3.67
1.0
5.0
7.67
1.0
2.33
4.67
-4.33
7.33
6.0
6.0
2.33
0.67
7.0
8.67
5.0
2.33
5.0
4.33
4.67
-1.0
5.0
10.67
7.33
4.67
0.0
7.67
-5.67
-3.0
0.67
2.67
-0.67
0.67
1.0
4.67
0.33
-1.0
2.0
5.0
3.67
7.67
3.0
3.33
-1.33
1.0
5.33
-3.67
4.33
-0.67
4.0
-2.67
1.33
3.33
3.0
3.33
0.33
-3.33
5.0
3.67
1.67
4.33
-1.33
-1.67
1.0
0.0
2.67
-4.0
1.33
0.67
4.33
1.33
-6.67
-2.0
-0.67
-1.67
-4.0
2.0
1.0
-2.0
2.33
-7.67
1.33
-3.0
-4.33
3.0
4.67
-2.33
-1.0
-5.0
-2.0
-4.0
-2.67
0.33
-4.33
-1.0
1.33
0.67
0.0
-1.33
6.33
4.33
0.0
-8.67
2.0
0.67
0.0
0.67
9.0
15.33
44.67
71.33
18.33
10.33
9.0
-1.33
22.33
22.0
19.33
10.0
3.33
10.0
13.0
10.0
16.67
16.67
8.67
25.33
19.0
10.0
19.67
15.33
6.0
14.67
17.0
2.0
1.33
19.33
5.67
11.0
6.33
7.0
6.33
5.33
31.33
41.0
66.67
110.67
87.67
23.33
35.67
44.67
75.33
79.67
64.33
54.33
18.0
16.0
20.33
14.33
11.67
8.67
12.33
17.67
22.67
33.33
29.67
13.67
11.0
-0.67
17.0
29.33
3.67
14.67
15.67
7.0
18.0
1.67
8.33
8.0
8.67
8.0
6.33
11.33
13.67
2.0
0.0
10.0
2.0
17.33
17.67
15.33
12.0
7.67
11.33
15.0
24.0
13.0
16.33
20.0
-5.0
1.33
22.67
14.67
14.67
16.33
-2.33
4.0
5.33
1.0
10.0
1.33
12.0
6.33
19.67
4.33
5.33
19.0
11.33
8.0
-1.33
13.33
-7.0
2.67
1.0
6.0
10.0
-3.0
-0.33
11.0
3.67
12.33
-5.33
-0.67
-2.67
19.67
-7.67
5.67
7.0
6.67
5.0
2.33
19.33
6.33
7.33
4.0
7.0
4.0
2.0
5.33
8.33
2.33
5.0
1.33
2.67
1.67
7.33
2.0
1.67
1.67
1.0
2.67
2.33
3.0
-3.67
-2.67
2.33
-2.67
-4.67
-2.33