File: EDX Back Ups and Old Files/Spectra copy 3.3.23/Samples/Low pH SF 25C 9d/7.75.txt
0.0
10.0
-28.0
-4.0
2.0
-3.0
-0.67
-0.33
-1.0
1.0
0.67
-0.67
1.0
-0.33
0.67
2.33
1.67
-1.0
1.0
3.33
1.67
5.33
-0.33
2.67
4.33
0.67
0.0
6.0
-1.33
2.0
4.33
-3.33
-1.33
3.33
6.0
-4.0
7.33
-0.33
4.0
3.67
7.0
-1.67
3.0
8.33
4.67
6.0
3.0
5.67
-2.67
0.67
1.0
-5.33
2.33
-1.0
3.67
3.67
2.33
2.67
2.0
6.67
5.33
-1.0
-3.0
7.0
-1.33
-0.33
4.0
3.33
0.67
2.0
6.33
-3.67
5.33
1.33
5.0
5.33
3.33
3.33
0.0
2.33
-0.67
-1.33
-2.0
3.67
2.67
-0.67
-3.33
1.33
1.0
2.0
-0.33
0.0
-4.67
-3.33
1.33
-1.67
-3.67
-1.0
-2.67
-2.67
0.0
-1.0
-3.0
-2.0
-0.67
-5.67
0.33
-2.0
-7.33
3.0
-0.33
4.67
-4.0
-5.0
2.0
-5.0
-5.67
4.33
-3.33
-4.0
3.33
-3.33
0.0
-0.33
-1.67
6.33
-2.0
-7.67
3.0
4.67
1.0
-4.33
-1.0
17.33
27.67
40.33
16.33
4.33
8.0
4.67
26.33
23.0
20.33
17.0
3.33
11.0
8.0
15.0
8.67
8.67
15.67
24.33
39.0
16.0
17.67
20.33
21.0
8.67
10.0
7.0
12.33
9.33
13.67
12.0
9.33
5.0
2.33
10.33
19.33
33.0
60.67
113.67
104.67
45.33
17.67
26.67
54.33
40.67
41.33
29.33
26.0
14.0
12.33
6.33
6.67
18.67
7.33
7.67
15.67
33.33
12.67
8.67
10.0
4.33
17.0
11.33
1.67
21.67
14.67
14.0
12.0
5.67
4.33
7.0
-2.33
-4.0
1.33
14.33
20.67
4.0
10.0
7.0
24.0
3.33
20.67
-2.67
3.0
9.67
20.33
16.0
0.0
5.0
10.33
17.0
4.0
2.33
10.67
18.67
3.67
13.33
8.67
0.0
5.33
0.0
6.0
-2.67
7.0
6.33
5.67
-2.67
5.33
3.0
3.33
-4.0
-2.33
-2.67
0.0
2.67
10.0
12.0
2.0
7.0
7.67
4.0
7.67
11.33
-3.33
5.33
-1.67
-1.33
-7.67
3.67
6.0
-8.33
8.0
-4.67
6.33
1.33
2.33
1.0
4.0
5.0
-1.0
1.33
3.33
0.33
1.0
6.33
6.67
8.67
1.33
-1.0
6.67
5.67
5.0
3.67
6.33
6.0
3.33
-0.67
3.33
1.33
5.33
-2.33