File: EDX Back Ups and Old Files/Spectra copy 3.3.23/Samples/Low pH SF 25C 9d/8.25.txt
0.0
-67.0
15.0
-25.0
3.0
1.0
-0.67
-1.33
-1.0
0.0
1.67
-0.67
0.0
0.67
0.67
1.33
-0.33
1.0
5.0
-0.67
2.67
3.33
0.67
1.67
1.33
-0.33
5.0
8.0
0.67
-2.0
-0.67
-0.33
1.67
8.33
4.0
5.0
6.33
-1.33
2.0
4.67
4.0
2.33
4.0
5.33
1.67
-1.0
1.0
10.67
6.33
4.67
6.0
-1.33
-1.67
-1.0
8.67
6.67
4.33
3.67
-5.0
5.67
-2.67
7.0
1.0
6.0
-0.33
3.67
1.0
-0.67
0.67
7.0
1.33
-0.67
2.33
2.33
-1.0
-3.67
2.33
2.33
4.0
2.33
3.33
-0.33
2.0
4.67
-0.33
7.33
-3.33
2.33
-1.0
-2.0
0.67
2.0
-0.67
0.67
2.33
2.33
-6.67
-1.0
-2.67
-3.67
-1.0
0.0
0.0
0.0
1.33
-6.67
-2.67
-1.0
-5.33
0.0
1.67
1.67
-1.0
0.0
-3.0
-3.0
-1.67
-0.67
1.67
0.0
1.33
0.67
-2.0
0.67
1.33
1.33
-4.0
-2.67
0.0
7.67
11.0
0.67
7.0
15.33
43.67
37.33
22.33
0.33
11.0
8.67
14.33
20.0
13.33
5.0
10.33
2.0
10.0
21.0
10.67
5.67
17.67
21.33
42.0
16.0
9.67
18.33
20.0
27.67
9.0
6.0
4.33
9.33
19.67
10.0
13.33
22.0
2.33
4.33
20.33
32.0
39.67
81.67
87.67
38.33
15.67
17.67
46.33
60.67
61.33
34.33
27.0
18.0
15.33
8.33
4.67
1.67
5.33
12.67
22.67
12.33
28.67
30.67
24.0
11.33
22.0
21.33
6.67
21.67
6.67
19.0
5.0
3.67
3.33
14.0
16.67
-3.0
11.33
6.33
25.67
3.0
3.0
15.0
8.0
2.33
5.67
7.33
4.0
-0.33
7.33
12.0
11.0
25.0
7.33
10.0
4.0
3.33
4.67
23.67
8.67
12.33
1.67
14.0
3.33
16.0
8.0
-5.67
12.0
4.33
14.67
4.33
2.33
2.0
13.33
18.0
-2.33
-4.67
2.0
-2.33
12.0
0.0
6.0
-2.0
-0.33
-3.0
7.67
7.33
4.67
7.33
-3.67
2.67
-0.67
7.67
5.0
2.67
14.0
-7.67
8.33
4.33
1.33
3.0
7.0
3.0
-2.0
2.33
4.33
-2.67
3.0
4.33
8.67
1.67
8.33
1.0
7.67
0.67
8.0
0.67
1.33
2.0
-0.67
-0.67
4.33
1.33
-4.67
1.67