File: EDX Back Ups and Old Files/Spectra copy 3.3.23/Samples/Low pH SF 25C 9d/8.5.txt
0.0
-3.0
-48.0
-32.0
-3.0
1.0
0.33
-1.33
0.0
1.0
-0.33
-0.67
1.0
0.67
0.67
0.33
0.67
0.0
-2.0
8.33
-0.33
2.33
4.67
1.67
-0.67
7.67
-1.0
7.0
0.67
9.0
0.33
-4.33
-4.33
-0.67
4.0
5.0
5.33
0.67
5.0
8.67
-1.0
6.33
-1.0
2.33
0.67
0.0
8.0
0.67
3.33
-3.33
4.0
4.67
-4.67
5.0
13.67
-2.33
1.33
-0.33
2.0
7.67
5.33
-2.0
1.0
4.0
3.67
2.67
6.0
6.33
3.67
6.0
3.33
-3.67
-2.67
-2.67
3.0
0.33
5.33
2.33
2.0
4.33
-0.67
-2.33
1.0
2.67
-0.33
1.33
-0.33
0.33
2.0
-2.0
4.67
-3.0
-1.67
1.67
0.33
-2.67
-8.67
-4.0
-1.67
0.33
0.0
1.0
1.0
-4.0
0.33
-4.67
-0.67
1.0
-2.33
1.0
2.67
-0.33
-5.0
-1.0
-4.0
-5.0
-1.67
4.33
-1.33
5.0
3.33
-3.33
3.0
4.67
5.33
8.33
0.0
8.33
-2.0
6.67
7.0
7.67
12.0
29.33
31.67
52.33
22.33
2.33
8.0
7.67
22.33
30.0
14.33
9.0
6.33
16.0
10.0
16.0
15.67
9.67
21.67
27.33
27.0
11.0
10.67
26.33
22.0
10.67
14.0
-4.0
4.33
25.33
13.67
11.0
18.33
-3.0
7.33
18.33
39.33
48.0
38.67
42.67
52.67
34.33
14.67
33.67
54.33
79.67
77.33
50.33
29.0
31.0
13.33
3.33
10.67
6.67
23.33
16.67
17.67
14.33
19.67
24.67
11.0
11.33
24.0
25.33
-1.33
17.67
9.67
7.0
13.0
-2.33
5.33
13.0
17.67
-7.0
8.33
14.33
20.67
-4.0
13.0
4.0
6.0
9.33
9.67
4.33
11.0
-0.33
4.33
2.0
13.0
-3.0
7.33
15.0
3.0
1.33
26.67
5.67
10.67
15.33
2.67
18.0
18.33
0.0
5.0
3.33
1.0
2.33
10.67
4.33
-1.67
-3.0
12.33
4.0
0.67
2.33
-3.0
-6.33
11.0
2.0
4.0
3.0
2.67
0.0
2.67
5.33
-7.33
-2.67
5.33
-2.33
-0.67
4.67
-4.0
1.67
3.0
0.33
4.33
-2.67
-1.67
0.0
0.0
6.0
-2.0
5.33
5.33
-3.67
7.0
11.33
3.67
2.67
3.33
8.0
10.67
3.67
0.0
7.67
3.33
1.0
2.33
9.33
4.33
-2.67
2.33
-5.33