File: EDX Back Ups and Old Files/Spectra copy 3.3.23/Samples/Low pH SF 25C 9d/8.75.txt
0.0
12.0
-31.0
-17.0
-14.0
3.0
-0.67
-0.33
0.0
0.0
-0.33
-0.67
1.0
1.67
1.67
-0.67
1.67
1.0
0.0
2.33
5.67
-0.67
2.67
4.67
7.33
0.67
-1.0
2.0
1.67
-3.0
-3.67
6.67
-5.33
0.33
7.0
5.0
-2.67
-1.33
0.0
13.67
2.0
-1.67
-2.0
0.33
0.67
1.0
5.0
0.67
-5.67
-1.33
2.0
1.67
-1.67
-3.0
8.67
1.67
-1.67
0.67
1.0
3.67
2.33
-6.0
0.0
2.0
0.67
-2.33
1.0
1.33
0.67
-3.0
1.33
-4.67
4.33
-2.67
0.0
-0.67
-2.67
1.33
-1.0
3.33
3.33
-1.33
3.0
4.67
0.67
4.33
-4.33
1.33
-2.0
1.0
2.67
2.0
0.33
2.67
1.33
-0.67
-7.67
-1.0
1.33
-0.67
-1.0
2.0
1.0
-2.0
3.33
-5.67
-1.67
0.0
-5.33
3.0
1.67
4.67
1.0
-1.0
0.0
-3.0
-9.67
1.33
-0.33
2.0
-0.67
-3.33
-2.0
2.67
-1.67
6.33
2.0
2.33
9.0
7.67
-4.0
6.67
16.0
17.33
12.67
19.33
16.33
-0.67
10.0
7.67
19.33
18.0
32.33
35.0
34.33
44.0
5.0
14.0
14.67
9.67
18.67
24.33
24.0
16.0
24.67
18.33
18.0
15.67
16.0
11.0
6.33
8.33
11.67
29.0
7.33
-6.0
6.33
17.33
65.33
93.0
79.67
70.67
90.67
36.33
26.67
19.67
29.33
36.67
46.33
32.33
24.0
9.0
18.33
15.33
10.67
11.67
12.33
20.67
23.67
16.33
35.67
28.67
19.0
7.33
37.0
14.33
7.67
2.67
11.67
18.0
3.0
1.67
8.33
10.0
10.67
4.0
-4.67
12.33
15.67
5.0
1.0
8.0
-1.0
6.33
6.67
-2.67
8.0
3.67
1.33
15.0
18.0
3.0
11.33
18.0
2.0
19.33
13.67
-2.33
9.67
7.33
-2.33
6.0
10.33
6.0
10.0
-0.67
-5.0
3.33
1.67
11.33
12.33
5.0
13.33
15.0
3.67
7.33
11.0
-10.33
8.0
1.0
4.0
-5.0
2.67
-1.0
0.67
7.33
2.67
-0.67
0.33
3.67
-2.67
2.67
-4.0
3.67
2.0
0.33
10.33
-0.67
0.33
-3.0
7.0
-1.0
0.0
3.33
7.33
4.33
0.0
1.33
-1.33
2.67
4.33
4.0
0.67
-0.33
1.0
6.67
1.33
-2.0
-1.67
5.33
3.33
3.33
-2.67
0.67