File: EDX Back Ups and Old Files/Spectra copy 3.3.23/Samples/Low pH SF 25C 9d/9.0.txt
0.0
-17.0
-53.0
-34.0
-4.0
2.0
0.33
-0.33
-1.0
1.0
-0.33
0.33
0.0
-0.33
2.67
1.33
1.67
3.0
1.0
2.33
-0.33
-2.67
-1.33
4.67
8.33
0.67
3.0
3.0
6.67
3.0
-0.67
2.67
2.67
5.33
-2.0
1.0
3.33
5.67
5.0
13.67
2.0
-2.67
1.0
2.33
6.67
-4.0
1.0
7.67
-3.67
5.67
0.0
10.67
0.33
-3.0
1.67
-0.33
3.33
2.67
3.0
10.67
5.33
-1.0
-2.0
5.0
3.67
4.67
5.0
3.33
5.67
3.0
3.33
4.33
0.33
1.33
-1.0
1.33
1.33
3.33
-1.0
-0.67
2.33
-2.33
1.0
2.67
2.67
4.33
-0.33
2.33
1.0
0.0
2.67
2.0
2.33
-0.33
-0.67
2.33
-3.67
6.0
2.33
0.33
4.0
-4.0
0.0
4.0
1.33
-6.67
-1.67
-3.0
-4.33
1.0
0.67
-0.33
-5.0
0.0
4.0
-5.0
-1.67
6.33
0.67
3.0
2.33
1.67
8.0
2.67
-1.67
7.33
0.0
-1.67
7.0
2.67
-1.0
4.67
6.0
15.33
34.67
48.33
19.33
2.33
9.0
3.67
19.33
24.0
22.33
24.0
51.33
25.0
17.0
19.0
25.67
28.67
20.67
22.33
31.0
40.0
45.67
16.33
16.0
15.67
17.0
10.0
7.33
15.33
24.67
25.0
13.33
15.0
0.33
17.33
54.33
164.0
143.67
136.67
89.67
26.33
20.67
22.67
31.33
49.67
61.33
32.33
22.0
15.0
14.33
10.33
5.67
3.67
17.33
15.67
20.67
15.33
31.67
38.67
24.0
14.33
17.0
34.33
11.67
11.67
7.67
11.0
15.0
12.67
8.33
4.0
17.67
1.0
-0.67
0.33
14.67
7.0
-2.0
7.0
5.0
-1.67
12.67
3.33
4.0
6.67
14.33
26.0
17.0
17.0
7.33
7.0
19.0
8.33
12.67
22.67
4.67
15.33
-3.33
-5.0
7.33
6.0
12.0
-4.67
-2.0
8.33
1.67
5.33
-1.67
1.0
12.33
2.0
0.67
5.33
4.0
-3.33
5.0
6.0
-1.0
-5.0
-3.33
9.0
1.67
8.33
-1.33
6.33
0.33
-4.33
-2.67
0.67
-7.0
7.67
-1.0
-0.67
2.33
2.33
0.33
7.0
5.0
3.0
1.0
4.33
7.33
0.33
6.0
6.33
5.67
4.67
1.33
12.0
3.67
2.67
0.0
-0.33
-4.67
3.0
2.33
2.33
2.33
-0.67
-2.67
-0.33