File: EDX Back Ups and Old Files/Spectra copy 3.3.23/Samples/Low pH SF 25C 9d/9.25.txt
0.0
39.0
-17.0
-22.0
9.0
4.0
1.33
-1.33
-1.0
0.0
-0.33
-0.67
1.0
-0.33
-0.33
2.33
-0.33
3.0
1.0
0.33
0.67
3.33
0.67
0.67
3.33
3.67
4.0
5.0
3.67
0.0
4.33
-3.33
7.67
7.33
-2.0
-2.0
4.33
4.67
-5.0
3.67
12.0
1.33
7.0
-0.67
5.67
2.0
4.0
-0.33
0.33
-1.33
6.0
2.67
0.33
1.0
2.67
5.67
1.33
1.67
-2.0
5.67
1.33
1.0
2.0
7.0
0.67
0.67
3.0
9.33
2.67
4.0
4.33
-3.67
0.33
-3.67
9.0
-2.67
1.33
0.33
-1.0
0.33
2.33
-2.33
5.0
4.67
1.67
2.33
0.67
1.33
2.0
-2.0
1.67
2.0
-1.67
-2.33
-3.67
-1.67
-6.67
-3.0
2.33
1.33
0.0
3.0
7.0
1.0
-3.67
-2.67
2.33
-2.0
0.67
6.0
2.67
-1.33
-2.0
5.0
-2.0
-3.0
-1.67
7.33
-1.33
2.0
7.33
1.67
-1.0
2.67
-0.67
7.33
-4.0
-5.67
0.0
8.67
-2.0
13.67
1.0
17.33
39.67
30.33
8.33
0.33
13.0
18.67
36.33
53.0
46.33
25.0
57.33
33.0
-1.0
22.0
44.67
21.67
23.67
4.33
33.0
58.0
52.67
25.33
13.0
5.67
20.0
15.0
3.33
6.33
19.67
20.0
11.33
25.0
15.33
23.33
51.33
186.0
243.67
194.67
92.67
45.33
26.67
21.67
46.33
52.67
54.33
36.33
29.0
15.0
8.33
9.33
5.67
11.67
16.33
18.67
25.67
23.33
32.67
23.67
19.0
3.33
32.0
35.33
20.67
7.67
2.67
23.0
16.0
-0.33
3.33
5.0
7.67
2.0
3.33
13.33
15.67
1.0
12.0
8.0
5.0
11.33
26.67
1.33
14.0
-2.33
-4.67
9.0
17.0
4.0
11.33
5.0
15.0
14.33
22.67
8.67
19.67
10.33
-0.33
-3.0
1.33
4.0
5.0
6.33
7.0
4.33
5.67
-3.67
-1.67
-1.0
10.33
12.0
-1.33
-4.67
-1.0
-4.33
2.0
2.0
7.0
-1.0
2.67
3.0
6.67
16.33
-2.33
-0.67
2.33
-0.33
-3.67
3.67
-2.0
-3.33
-4.0
-3.67
1.33
1.33
2.33
-4.0
14.0
2.0
6.0
5.33
2.33
1.33
4.0
-2.67
3.67
-0.33
4.33
3.0
0.67
-0.33
8.0
2.67
1.33
7.0
5.33
-3.67
2.33
1.33
2.33
0.67