File: EDX Back Ups and Old Files/Spectra copy 3.3.23/Samples/High pH BL 60C 6d/11.0.txt
0.0
-33.67
-25.33
-16.0
-1.33
0.33
1.0
-0.33
-0.33
1.0
2.0
-0.67
-1.0
-0.33
0.33
5.0
0.0
2.0
-3.67
0.67
-3.67
3.0
-4.33
12.0
3.67
5.0
-0.67
2.67
3.67
-0.33
-5.33
-1.0
-4.33
1.0
3.67
12.0
10.0
-2.0
4.33
1.33
0.67
1.33
7.33
3.0
0.0
-2.0
2.33
7.0
-4.33
2.33
6.0
3.0
-4.33
-1.33
0.33
7.0
-4.0
3.67
-3.33
-1.67
-0.33
3.0
6.33
5.33
-0.67
-1.0
-0.67
5.67
1.0
-0.67
-1.67
4.67
-1.67
3.67
2.0
3.33
-3.0
0.67
3.67
-3.67
-0.33
4.67
2.33
2.33
2.33
1.0
5.0
1.33
2.0
-2.0
0.67
-2.0
3.67
-1.67
0.0
-3.33
1.33
-3.67
-4.67
-1.33
-2.67
-2.0
2.67
-0.33
-4.67
-1.0
6.33
-1.67
-1.0
2.67
3.33
-3.0
3.67
0.0
4.33
1.33
6.67
2.67
4.0
-0.67
0.33
0.0
0.33
2.0
2.33
-0.67
4.33
-2.67
4.33
-1.67
5.0
7.0
-0.33
5.67
4.0
4.0
8.67
4.67
5.0
7.0
-1.33
2.0
4.67
15.33
1.33
10.33
23.0
37.0
48.67
28.0
17.0
0.67
8.67
5.33
6.0
0.33
9.33
-0.67
10.0
0.67
3.67
10.67
6.0
5.67
19.0
-0.33
0.33
3.0
20.33
8.33
7.33
7.67
2.33
11.33
9.33
1.33
12.0
8.33
6.67
8.0
9.0
0.0
9.0
6.0
23.67
45.67
95.33
171.33
234.33
187.0
82.0
34.67
10.67
-2.0
5.67
8.33
18.67
7.0
1.0
9.67
14.0
8.67
10.33
3.33
4.33
11.0
13.33
10.33
21.67
6.0
12.33
4.67
0.33
15.67
11.0
0.0
3.33
12.0
0.0
5.67
-9.33
-4.0
4.33
3.67
6.0
9.0
7.0
6.33
23.33
25.33
13.0
1.33
10.0
2.0
7.67
4.0
4.0
12.67
2.33
-0.67
6.0
-5.0
-0.33
5.33
5.33
-1.0
6.0
3.0
10.0
11.0
7.33
25.67
15.67
-7.0
4.67
-0.67
16.33
1.67
-9.67
5.33
7.67
7.67
-3.67
-3.33
-3.0
7.0
0.0
-0.67
-4.67
9.0
6.0
5.0
9.33
1.33
4.67
0.67
1.67
4.0
0.33
3.33
4.67
-1.33
-0.67
4.67
-1.33
-5.33
0.0
1.67
-2.33
-2.33
2.0
2.67
0.0
-2.67