File: EDX Back Ups and Old Files/Spectra copy 3.3.23/Samples/High pH BL 60C 6d/11.25.txt
0.0
-0.67
-13.33
22.0
4.67
0.33
3.0
2.67
-0.33
1.0
0.0
-0.67
0.0
1.67
0.33
0.0
-1.0
2.0
-2.67
-3.33
-0.67
7.0
-3.33
9.0
-2.33
-1.0
1.33
6.67
2.67
-2.33
-5.33
-5.0
-7.33
-4.0
-3.33
-1.0
0.0
0.0
-0.67
3.33
2.67
3.33
1.33
2.0
-5.0
1.0
-4.67
4.0
0.67
-0.67
0.0
5.0
1.67
5.67
-1.67
-10.0
0.0
-1.33
-7.33
-4.67
-3.33
1.0
3.33
-3.67
-4.67
1.0
1.33
0.67
-1.0
0.33
-2.67
5.67
-1.67
-0.33
1.0
-4.67
-1.0
1.67
-0.33
-1.67
2.67
-0.33
-1.67
5.33
4.33
-2.0
4.0
0.33
0.0
3.0
-1.33
-2.0
5.67
-1.67
3.0
-6.33
-1.67
1.33
0.33
1.67
-1.67
2.0
12.67
3.67
4.33
3.0
1.33
0.33
1.0
2.67
4.33
-4.0
-1.33
1.0
0.33
-3.67
-0.33
-0.33
2.0
-1.67
2.33
2.0
3.33
2.0
6.33
-0.67
5.33
-0.67
10.33
3.33
4.0
8.0
-1.33
17.67
9.0
9.0
2.67
-0.33
7.0
8.0
4.67
7.0
2.67
7.33
11.33
11.33
18.0
27.0
38.67
28.0
22.0
4.67
6.67
8.33
7.0
7.33
6.33
7.33
6.0
0.67
5.67
12.67
1.0
8.67
11.0
18.67
11.33
11.0
9.33
14.33
-6.67
14.67
4.33
15.33
9.33
6.33
16.0
9.33
-3.33
4.0
8.0
10.0
8.0
15.0
14.67
27.67
106.33
206.33
246.33
179.0
104.0
22.67
21.67
4.0
16.67
10.33
4.67
3.0
5.0
18.67
6.0
24.67
7.33
8.33
-6.67
2.0
15.33
7.33
11.67
-3.0
6.33
11.67
5.33
4.67
5.0
-1.0
7.33
-3.0
-3.0
3.67
-3.33
2.0
1.33
-1.33
2.0
0.0
3.0
17.33
6.33
15.33
20.0
3.33
11.0
3.0
15.67
7.0
-6.0
1.67
1.33
-5.67
-6.0
-2.0
11.67
3.33
-1.67
9.0
4.0
8.0
4.0
-4.0
13.33
25.67
0.67
9.0
4.67
3.33
6.33
-0.33
-0.67
9.33
-7.33
5.67
-1.67
2.67
2.0
-2.0
3.0
-0.67
5.33
4.0
4.0
3.0
8.33
2.33
8.67
2.67
1.67
-5.0
-5.67
3.33
-0.33
-0.33
-3.67
3.67
0.67
0.67
0.0
-0.33
-3.33
-0.33
-2.0
3.67
0.0
-2.67