File: EDX Back Ups and Old Files/Spectra copy 3.3.23/Samples/High pH BL 60C 6d/11.75.txt
0.0
13.33
4.67
-2.0
-1.33
1.33
1.0
1.67
0.67
0.0
1.0
0.33
0.0
-0.33
-0.67
2.0
0.0
0.0
-0.67
2.67
-4.67
0.0
-3.33
8.0
1.67
-1.0
-3.67
2.67
5.67
-2.33
6.67
-2.0
0.67
-4.0
2.67
11.0
7.0
1.0
-1.67
-1.67
-0.33
5.33
0.33
6.0
-2.0
1.0
-3.67
7.0
-0.33
4.33
-3.0
1.0
-4.33
2.67
-3.67
-6.0
-1.0
1.67
1.67
-2.67
-1.33
4.0
-2.67
0.33
-3.67
2.0
4.33
2.67
-2.0
0.33
1.33
1.67
-3.67
4.67
0.0
5.33
2.0
1.67
2.67
-4.67
2.67
-1.33
4.33
3.33
0.33
-5.0
4.0
-4.67
1.0
0.0
0.67
-5.0
0.67
-2.67
2.0
3.67
-1.67
-3.67
3.33
0.67
1.33
-1.0
2.67
1.67
-0.67
7.0
2.33
2.33
-3.0
5.67
-0.67
-5.0
3.67
-5.0
1.33
2.33
-4.33
2.67
7.0
1.33
2.33
4.0
1.33
3.0
2.33
0.33
10.33
1.33
5.33
2.33
5.0
7.0
-0.33
12.67
8.0
0.0
9.67
-0.33
0.0
16.0
11.67
9.0
8.67
7.33
10.33
22.33
18.0
32.0
43.67
29.0
22.0
8.67
9.67
0.33
11.0
4.33
9.33
6.33
4.0
4.67
5.67
2.67
6.0
-3.33
18.0
10.67
11.33
14.0
11.33
8.33
-9.67
7.67
4.33
8.33
1.33
-0.67
14.0
11.33
-2.33
10.0
1.0
9.0
9.0
14.0
20.67
50.67
108.33
196.33
272.33
243.0
97.0
56.67
18.67
19.0
2.67
8.33
4.67
15.0
3.0
5.67
4.0
7.67
4.33
9.33
-3.67
0.0
7.33
9.33
17.67
1.0
-2.67
8.67
-2.67
7.67
2.0
3.0
12.33
5.0
-2.0
2.67
-1.33
5.0
2.33
3.67
3.0
6.0
0.0
5.33
7.33
13.33
6.0
1.33
5.0
13.0
1.67
7.0
5.0
3.67
4.33
3.33
0.0
-8.0
6.67
8.33
3.33
-2.0
1.0
10.0
14.0
5.0
11.33
11.67
18.67
2.0
4.67
2.33
9.33
-3.33
2.33
2.33
-0.33
6.67
-0.67
11.67
1.0
1.0
0.0
4.33
8.33
3.0
1.0
-2.0
7.33
0.33
-3.33
1.67
4.67
-1.0
2.33
-2.67
-0.33
-7.33
-2.67
-0.33
1.67
-1.33
4.0
0.67
1.67
-0.33
0.0
1.67
-2.0
-2.67