File: EDX Back Ups and Old Files/Spectra copy 3.3.23/Samples/High pH BL 60C 6d/6.0.txt
0.0
-118.67
-37.33
7.0
2.67
0.33
1.0
1.67
0.67
1.0
0.0
-0.67
-1.0
0.67
3.33
1.0
0.0
2.0
-6.67
3.67
-3.67
2.0
1.67
0.0
4.67
0.0
-2.67
-0.33
-0.33
8.67
1.67
0.0
-5.33
3.0
0.67
2.0
0.0
-1.0
3.33
1.33
6.67
11.33
3.33
2.0
-6.0
0.0
-3.67
2.0
1.67
3.33
2.0
3.0
-0.33
2.67
-0.67
-4.0
7.0
1.67
-1.33
-2.67
-4.33
4.0
3.33
5.33
4.33
6.0
6.33
4.67
1.0
3.33
8.33
2.67
5.33
0.67
4.0
3.33
-2.0
8.67
-0.33
0.33
0.67
3.67
2.33
4.33
-1.67
-1.0
-1.0
0.33
3.0
2.0
-0.33
2.0
1.67
-1.67
7.0
-0.33
2.33
-2.67
-2.67
0.67
-3.67
1.0
8.67
-0.33
1.33
0.0
-4.67
-6.67
4.0
4.67
2.33
-2.0
7.67
2.0
9.33
20.33
20.67
16.67
7.0
-2.67
5.33
5.0
12.33
-3.0
1.33
4.33
10.33
-4.67
9.33
4.33
5.0
11.0
1.67
3.67
7.0
10.0
-3.33
4.67
1.0
12.0
9.67
4.0
4.67
-1.67
8.33
3.33
17.0
13.0
29.67
13.0
15.0
0.67
6.67
1.33
8.0
9.33
4.33
6.33
5.0
7.67
4.67
1.67
-1.0
4.67
12.0
13.67
10.33
13.0
1.33
11.33
8.33
4.67
8.33
8.33
7.33
8.33
18.0
7.33
2.67
12.0
2.0
15.0
14.0
17.0
11.67
26.67
33.33
90.33
91.33
99.0
39.0
11.67
10.67
12.0
14.67
17.33
5.67
14.0
12.0
19.67
9.0
7.67
-0.67
10.33
4.33
3.0
7.33
22.33
20.67
19.0
10.33
5.67
8.33
-3.33
21.0
9.0
19.33
29.0
18.0
25.67
6.67
-2.0
12.33
6.67
4.0
19.0
1.0
2.33
8.33
14.33
5.0
-2.67
-2.0
11.0
1.67
5.0
8.0
1.67
3.33
1.33
0.0
2.0
1.67
-0.67
3.33
8.0
9.0
9.0
-3.0
15.0
9.33
5.67
-2.33
6.0
12.67
2.33
4.33
1.67
-4.67
2.33
-0.33
5.67
4.33
3.67
-6.0
3.0
1.0
5.33
0.33
3.0
3.0
4.0
-3.67
3.33
1.67
-6.33
2.67
-2.0
0.33
1.33
5.67
3.67
0.33
1.67
5.67
-3.33
2.0
-3.33
2.67
-3.33
3.0
2.67
3.0
-1.67