File: EDX Back Ups and Old Files/Spectra copy 3.3.23/Samples/High pH BL 60C 6d/6.25.txt
0.0
19.33
37.67
-7.0
6.67
1.33
1.0
0.67
0.67
0.0
0.0
-0.67
-1.0
1.67
-0.67
0.0
1.0
5.0
-0.67
4.67
2.33
4.0
0.67
9.0
-1.33
-2.0
-2.67
0.67
5.67
-0.33
5.67
10.0
1.67
2.0
2.67
7.0
2.0
9.0
-2.67
10.33
2.67
9.33
0.33
1.0
-2.0
6.0
4.33
2.0
-6.33
6.33
1.0
5.0
-2.33
0.67
0.33
0.0
0.0
2.67
-0.33
-5.67
0.67
4.0
5.33
3.33
-3.67
0.0
-1.67
3.67
2.0
6.33
5.33
4.67
2.33
2.67
-1.0
-0.67
4.0
7.67
1.67
-0.67
6.67
3.67
1.33
2.33
0.33
1.0
0.0
-1.67
2.0
0.0
0.67
-2.0
0.67
-0.67
3.0
0.67
-2.67
7.33
-0.67
-1.33
-3.67
0.0
7.67
-2.33
3.33
3.0
-2.67
-4.67
4.0
6.67
3.33
1.0
6.67
11.0
5.33
17.33
28.67
25.67
8.0
6.33
10.33
2.0
1.33
3.0
5.33
5.33
1.33
1.33
-0.67
-3.67
2.0
10.0
-1.33
8.67
4.0
-2.0
7.67
-0.33
2.0
6.0
1.67
1.0
5.67
5.33
6.33
3.33
6.0
21.0
24.67
14.0
13.0
10.67
0.67
3.33
8.0
12.33
7.33
9.33
8.0
3.67
6.67
1.67
5.0
5.67
8.0
9.67
5.33
-1.0
16.33
13.33
1.33
9.67
4.33
8.33
5.33
10.33
5.0
1.33
7.67
12.0
5.0
4.0
21.0
13.0
6.67
28.67
38.33
67.33
103.33
76.0
61.0
11.67
8.67
12.0
0.67
8.33
1.67
8.0
17.0
2.67
5.0
9.67
1.33
11.33
-0.67
18.0
17.33
12.33
14.67
0.0
3.33
8.67
8.33
9.67
24.0
25.0
28.33
40.0
32.0
23.67
7.67
8.0
-0.67
24.67
16.0
14.0
3.0
2.33
2.33
17.33
18.0
7.33
5.0
11.0
7.67
8.0
3.0
7.67
10.33
-1.67
7.0
-1.0
-1.33
12.33
4.33
3.0
6.0
4.0
3.0
14.0
12.33
7.67
6.67
4.0
4.67
5.33
10.33
1.67
-2.67
1.33
3.67
4.67
4.33
-6.33
-3.0
-1.0
-1.0
2.33
0.33
6.0
2.0
2.0
8.33
-4.67
3.67
3.67
1.67
-4.0
6.33
1.33
-4.33
-0.33
-2.67
1.67
5.67
4.67
1.0
0.67
4.67
-3.33
-1.0
0.67
-3.0
-6.67