File: EDX Back Ups and Old Files/Spectra copy 3.3.23/Samples/High pH BL 60C 6d/7.5.txt
0.0
-102.67
10.67
-7.0
5.67
1.33
2.0
-0.33
0.67
1.0
1.0
0.33
1.0
-0.33
0.33
2.0
3.0
2.0
0.33
-0.33
-0.67
5.0
1.67
3.0
-3.33
1.0
1.33
-0.33
5.67
1.67
2.67
0.0
0.67
6.0
-0.33
2.0
7.0
5.0
-0.67
-6.67
4.67
3.33
6.33
11.0
1.0
7.0
2.33
1.0
-0.33
2.33
-2.0
1.0
-4.33
-0.33
-3.67
-5.0
-3.0
8.67
-3.33
3.33
3.67
6.0
-2.67
0.33
-0.67
7.0
7.33
4.67
1.0
-1.67
2.33
1.67
-2.67
2.67
1.0
3.33
1.0
0.67
0.67
1.33
-1.33
4.67
0.33
-0.67
1.33
11.0
2.0
0.33
3.0
4.0
2.67
-2.0
5.67
-1.67
6.0
2.67
6.33
-1.67
-1.67
0.67
6.33
-3.0
1.67
-3.33
-1.67
5.0
-2.67
5.33
0.0
2.67
3.33
-1.0
3.67
0.0
5.33
27.33
27.67
24.67
10.0
0.33
-2.67
4.0
-0.67
1.0
8.33
1.33
-4.67
-0.67
8.33
7.33
3.0
6.0
5.67
4.67
9.0
11.0
4.67
-0.33
5.0
3.0
4.67
-1.0
2.67
9.33
-2.67
11.33
8.0
12.0
18.67
13.0
5.0
2.67
11.67
2.33
7.0
7.33
11.33
7.33
4.0
0.67
0.67
3.67
3.0
13.67
6.0
7.67
9.33
9.0
10.33
11.33
5.33
13.67
6.33
8.33
7.33
8.33
11.0
2.33
2.67
8.0
8.0
5.0
14.0
15.0
18.67
34.67
47.33
86.33
115.33
115.0
43.0
10.67
16.67
12.0
26.67
11.33
5.67
1.0
10.0
15.67
13.0
1.67
11.33
3.33
3.33
6.0
23.33
7.33
6.67
1.0
5.33
7.67
8.33
13.67
28.0
20.0
24.33
53.0
30.0
16.67
4.67
11.0
1.33
5.67
7.0
10.0
4.0
-0.67
-5.67
11.33
16.0
7.33
-6.0
16.0
3.67
14.0
8.0
7.67
11.33
4.33
12.0
-1.0
4.67
-6.67
1.33
9.0
-5.0
5.0
5.0
10.0
26.33
2.67
11.67
-1.0
7.67
-4.67
12.33
4.67
-5.67
-0.67
8.67
9.67
6.33
-1.33
4.0
0.0
3.0
8.33
-6.67
13.0
0.0
-1.0
5.33
-7.67
5.67
-1.33
1.67
0.0
1.33
1.33
4.67
-2.33
-0.67
0.67
0.67
-0.33
0.0
-0.33
3.67
4.67
-5.0
-1.33
4.0
-4.67