File: EDX Back Ups and Old Files/Spectra copy 3.3.23/Samples/High pH BL 60C 6d/8.0.txt
0.0
-48.67
4.67
-22.0
-1.33
-1.67
0.0
-0.33
-0.33
0.0
1.0
0.33
-1.0
-0.33
0.33
0.0
2.0
6.0
-4.67
-1.33
-5.67
2.0
-7.33
3.0
0.67
-2.0
4.33
3.67
3.67
1.67
-5.33
-6.0
-0.33
-2.0
-3.33
2.0
8.0
-3.0
-3.67
4.33
4.67
6.33
4.33
4.0
12.0
5.0
0.33
1.0
-0.33
4.33
-1.0
3.0
-4.33
4.67
-3.67
1.0
0.0
0.67
-2.33
7.33
0.67
1.0
5.33
-2.67
-5.67
4.0
0.33
5.67
-2.0
5.33
4.33
1.67
1.33
-0.33
1.0
0.33
3.0
1.67
-1.33
2.33
7.67
-1.33
3.33
2.33
-1.67
2.0
0.0
0.33
4.0
1.0
1.67
-1.0
0.67
2.33
6.0
-1.33
-1.67
-1.67
-0.67
-0.33
0.33
1.0
0.67
1.67
-1.67
-1.0
1.33
2.33
3.0
-2.33
-1.67
-6.0
8.67
3.0
8.33
29.33
34.67
28.67
9.0
8.33
3.33
6.0
0.33
2.0
2.33
-0.67
-2.67
-2.67
7.33
2.33
0.0
6.0
7.67
8.67
9.0
8.0
3.67
-0.33
-3.0
6.0
-3.33
15.0
7.67
7.33
8.33
11.33
10.0
15.0
21.67
21.0
8.0
-2.33
-2.33
5.33
7.0
5.33
8.33
0.33
3.0
13.67
8.67
5.67
-2.0
-1.33
10.0
8.67
0.33
6.0
12.33
9.33
-5.67
16.67
2.33
4.33
6.33
2.33
11.0
21.33
-1.33
10.0
1.0
7.0
8.0
9.0
31.67
17.67
35.33
86.33
108.33
102.0
58.0
17.67
18.67
12.0
5.67
11.33
8.67
19.0
17.0
17.67
4.0
7.67
6.33
9.33
10.33
7.0
11.33
11.33
15.67
11.0
14.33
10.67
-5.67
1.67
19.0
17.0
26.33
45.0
19.0
20.67
10.67
15.0
4.33
8.67
4.0
10.0
-2.0
1.33
10.33
12.33
6.0
10.33
3.0
9.0
-0.33
15.0
1.0
10.67
5.33
3.33
12.0
-10.0
2.67
5.33
4.33
-4.0
4.0
10.0
5.0
0.0
6.33
2.67
6.67
0.0
6.67
8.33
0.33
1.67
-1.67
4.33
9.67
-0.33
3.33
1.67
4.0
-1.0
1.0
0.33
2.33
-1.0
-1.0
-1.0
6.33
1.33
5.67
0.67
6.67
-2.0
-2.67
6.33
3.67
2.67
2.33
1.67
-2.33
-5.33
-1.0
-1.33
-1.33
-2.33
2.0
2.67
3.0
-4.67