File: EDX Back Ups and Old Files/Spectra copy 3.3.23/Samples/High pH BL 60C 6d/9.25.txt
0.0
-30.67
51.67
2.0
9.67
2.33
0.0
-0.33
0.67
1.0
0.0
0.33
-1.0
0.67
0.33
3.0
2.0
-1.0
-0.67
-0.33
2.33
2.0
1.67
6.0
2.67
0.0
-3.67
4.67
2.67
0.67
2.67
-5.0
-1.33
11.0
-1.33
1.0
-1.0
4.0
1.33
0.33
1.67
0.33
3.33
14.0
-1.0
-1.0
0.33
2.0
2.67
1.33
-3.0
1.0
-2.33
5.67
2.33
-2.0
3.0
6.67
-0.33
2.33
1.67
7.0
-1.67
1.33
-1.67
4.0
8.33
4.67
-3.0
1.33
-4.67
1.67
0.33
1.67
4.0
-0.67
2.0
2.67
-1.33
-2.67
-0.33
2.67
6.33
2.33
2.33
-2.0
1.0
-1.67
5.0
2.0
3.67
-4.0
5.67
-1.67
0.0
-4.33
4.33
1.33
1.33
-0.33
0.33
-3.0
-2.33
-0.33
1.33
2.0
-1.67
-5.67
0.0
3.67
2.33
-1.0
2.67
8.0
9.33
12.33
26.67
19.67
4.0
1.33
3.33
11.0
6.33
9.0
2.33
-3.67
3.33
0.33
3.33
2.33
3.0
8.0
-0.33
2.67
4.0
1.0
8.67
1.67
2.0
3.0
-1.33
2.0
0.67
6.33
-0.67
15.33
12.0
24.0
35.67
15.0
12.0
6.67
9.67
-2.67
10.0
10.33
18.33
4.33
1.0
1.67
13.67
8.67
5.0
0.67
5.0
10.67
7.33
5.0
12.33
4.33
1.33
6.67
3.33
8.33
4.33
12.33
17.0
9.33
6.67
7.0
3.0
10.0
12.0
14.0
14.67
23.67
73.33
128.33
138.33
117.0
71.0
30.67
16.67
3.0
13.67
8.33
4.67
15.0
16.0
11.67
10.0
5.67
5.33
15.33
12.33
5.0
22.33
10.33
16.67
8.0
9.33
2.67
5.33
19.67
12.0
18.0
15.33
40.0
17.0
18.67
9.67
0.0
5.33
4.67
-2.0
10.0
5.0
-0.67
-2.67
8.33
9.0
5.33
1.0
3.0
-0.33
12.0
8.0
6.67
7.33
6.33
-1.0
1.0
-0.33
-3.67
-1.67
2.0
-2.0
8.0
4.0
-1.0
8.33
3.67
-2.33
-3.0
2.67
5.33
6.33
-10.33
-4.67
7.33
8.67
0.67
-2.67
1.67
8.0
-3.0
7.0
5.33
-7.67
4.0
3.0
4.0
14.33
5.33
3.67
0.67
-4.33
-5.0
-0.67
1.33
1.67
-0.33
2.33
4.67
0.67
2.67
7.0
1.67
2.67
-2.33
-5.0
5.67
-3.0
-3.67