File: EDX Back Ups and Old Files/Spectra copy 3.3.23/Samples/High pH BL 60C 6d/9.75.txt
0.0
-60.67
-36.33
-20.0
-2.33
0.33
0.0
-0.33
0.67
1.0
1.0
0.33
0.0
-0.33
1.33
0.0
1.0
3.0
-1.67
-0.33
3.33
1.0
3.67
3.0
0.67
3.0
-0.67
7.67
1.67
1.67
-0.33
0.0
1.67
6.0
1.67
1.0
1.0
-7.0
-4.67
1.33
0.67
10.33
-0.67
3.0
4.0
5.0
-5.67
0.0
3.67
-0.67
3.0
3.0
-2.33
-0.33
2.33
-3.0
-5.0
4.67
-0.33
-0.67
4.67
3.0
3.33
-1.67
-0.67
4.0
2.33
9.67
8.0
-2.67
0.33
1.67
0.33
2.67
0.0
-0.67
-2.0
0.67
-0.33
0.33
-0.33
2.67
2.33
-0.67
1.33
-2.0
-2.0
0.33
4.0
4.0
1.67
5.0
1.67
5.33
2.0
-4.33
2.33
2.33
-0.67
-2.33
1.33
8.0
1.67
3.67
2.33
2.0
-1.67
1.33
1.0
3.67
-1.67
-3.0
-3.33
1.0
3.33
3.33
0.67
-1.33
1.0
-5.67
3.33
4.0
2.33
0.0
5.33
5.33
2.33
-0.67
5.33
2.33
3.0
7.0
3.67
12.67
2.0
6.0
13.67
2.67
4.0
8.0
0.67
2.0
2.67
6.33
9.33
9.33
22.0
35.0
31.67
19.0
16.0
3.67
4.67
3.33
10.0
3.33
9.33
2.33
5.0
3.67
4.67
6.67
5.0
6.67
3.0
16.67
4.33
12.0
4.33
7.33
-1.67
9.67
5.33
5.33
14.33
24.33
17.0
7.33
7.67
5.0
1.0
10.0
10.0
11.0
23.67
46.67
97.33
160.33
201.33
159.0
88.0
18.67
18.67
5.0
9.67
10.33
4.67
5.0
15.0
9.67
1.0
9.67
6.33
3.33
-0.67
-2.0
7.33
17.33
8.67
-5.0
3.33
5.67
1.33
8.67
16.0
1.0
10.33
10.0
3.0
17.67
6.67
15.0
0.33
-6.33
2.0
-2.0
-2.0
9.33
5.33
21.33
-1.0
11.33
6.0
6.0
-5.33
10.0
2.0
2.67
-1.67
4.33
-2.0
-10.0
8.67
2.33
-2.67
6.0
-7.0
7.0
5.0
3.0
12.33
16.67
2.67
3.0
-1.33
-2.67
3.33
0.67
-8.67
10.33
7.67
8.67
-4.67
-1.33
1.0
5.0
1.0
0.33
-4.67
13.0
2.0
-1.0
6.33
5.33
2.67
3.67
-0.33
-3.0
-0.67
6.33
5.67
-2.33
-0.67
-0.33
1.67
4.67
2.0
-3.33
-0.33
-2.33
-3.0
4.67
-7.0
-3.67