File: EDX Back Ups and Old Files/Spectra copy 3.3.23/Samples/Low pH SF 60C 4d/10.0.txt
0.0
-54.33
-35.67
-7.0
-4.0
1.67
0.67
-0.67
-0.33
0.33
-0.67
-0.33
0.67
-0.67
1.0
-1.67
1.67
0.0
4.0
1.33
-1.33
1.0
4.33
3.67
-1.67
3.33
2.0
2.67
3.0
-2.67
-0.67
7.67
-1.0
1.67
9.0
5.33
-2.67
0.67
3.67
10.33
-3.33
3.33
-3.0
9.33
-3.0
-2.67
8.0
-7.0
6.33
-2.33
2.67
-1.67
0.33
1.0
-0.33
1.67
-1.67
-1.0
-1.33
3.0
2.0
3.67
-3.0
0.0
-2.0
-1.33
-1.33
-1.0
-5.33
3.0
0.0
4.33
-0.67
5.0
1.67
0.33
-1.0
3.33
0.0
0.0
-2.33
1.33
-1.67
-1.33
-0.33
3.0
2.67
-0.67
3.67
1.0
1.67
1.0
-6.0
3.67
-4.0
-4.33
-2.67
-2.67
-1.33
-5.0
-1.67
-1.67
-2.33
-6.33
-2.33
3.33
-10.33
10.67
-6.0
-6.33
1.0
-0.67
-2.33
-0.67
-7.67
-1.33
-4.33
-6.33
0.67
-5.0
5.0
9.33
4.33
-7.67
-2.0
-2.0
-2.0
6.33
3.0
-3.67
-2.0
-2.33
9.0
19.33
67.33
67.0
8.67
-5.33
-5.0
6.67
18.67
38.67
52.0
13.67
6.33
-2.0
3.33
-1.67
-5.33
7.33
3.33
8.33
19.33
5.67
24.67
18.33
12.0
17.67
3.67
8.33
4.0
8.33
5.67
5.67
10.0
20.67
11.33
9.67
23.0
38.0
67.33
82.0
60.33
36.0
15.33
16.67
21.0
37.67
32.33
32.0
24.0
27.67
14.0
27.33
4.0
7.0
8.0
18.33
7.33
20.33
27.33
23.33
23.67
32.67
16.33
16.33
15.67
11.33
-4.0
11.67
19.0
3.33
13.33
11.33
3.0
-4.0
2.67
3.0
6.0
2.33
10.67
16.67
-3.67
10.33
2.33
1.0
1.0
6.67
-1.67
4.0
-0.33
5.33
6.67
17.67
4.0
5.67
14.33
11.33
13.33
20.0
5.67
-0.67
3.67
2.67
5.0
9.0
1.0
2.33
-4.0
16.33
-7.33
11.67
8.67
-2.0
1.0
2.67
-5.0
-7.67
7.0
9.33
-7.0
3.0
3.0
7.67
4.67
3.0
4.33
-0.33
1.67
9.0
-4.67
-2.0
2.33
4.0
-2.67
2.67
2.67
3.0
3.0
1.0
3.67
-8.33
-4.0
-9.0
5.0
-1.33
-2.67
-2.67
-1.67
4.67
-2.67
-3.0
4.67
3.0
0.0
3.0
-3.67
6.0
1.0
-3.33
3.67
8.0
-2.33
1.0