File: EDX Back Ups and Old Files/Spectra copy 3.3.23/Samples/Low pH SF 60C 4d/6.5.txt
0.0
5.67
-10.67
-12.0
3.0
-2.33
0.67
-0.67
0.67
-0.67
-1.67
-0.33
0.67
0.33
1.0
0.33
-0.33
1.0
5.0
3.33
-1.33
-3.0
4.33
-3.33
2.33
2.33
1.0
-4.33
2.0
5.33
3.33
1.67
11.0
-0.33
4.0
0.33
4.33
5.67
9.67
2.33
2.67
3.33
5.0
-5.67
6.0
1.33
-2.0
2.0
10.33
3.67
3.67
0.33
1.33
0.0
3.67
-0.33
4.33
6.0
3.67
4.0
-1.0
-0.33
-2.0
-5.0
3.0
1.67
1.67
3.0
-2.33
0.0
2.0
3.33
-1.67
-2.0
2.67
0.33
-2.0
-0.67
0.0
-3.0
-1.33
1.33
1.33
-3.33
0.67
4.0
-1.33
3.33
0.67
1.0
-1.33
-1.0
-4.0
1.67
0.0
5.67
1.33
-2.67
-2.33
-1.0
8.33
-1.67
-1.33
-3.33
-1.33
-4.67
-8.33
-1.33
0.0
-3.33
0.0
2.33
-5.33
-1.67
-1.67
-3.33
5.67
-7.33
-0.33
-12.0
-2.0
-1.67
-3.67
-3.67
-2.0
-1.0
0.0
3.33
5.0
-2.67
-2.0
-2.33
9.0
10.33
23.33
48.0
23.67
1.67
-11.0
1.67
10.67
17.67
5.0
-4.33
0.33
-1.0
-0.67
-0.67
-5.33
3.33
8.33
12.33
19.33
37.67
19.67
32.33
14.0
3.67
9.67
4.33
6.0
6.33
0.67
6.67
0.0
7.67
9.33
2.67
21.0
45.0
98.33
95.0
72.33
61.0
29.33
47.67
20.0
15.67
37.33
21.0
15.0
15.67
-1.0
-0.67
4.0
10.0
7.0
6.33
10.33
16.33
23.33
13.33
2.67
12.67
20.33
10.33
1.67
20.33
5.0
1.67
13.0
-2.67
2.33
6.33
4.0
10.0
5.67
-1.0
1.0
-3.67
1.67
4.67
7.33
3.33
-0.67
-2.0
4.0
1.67
9.33
-4.0
-1.33
12.33
7.67
19.67
14.0
-1.33
-6.67
12.33
14.33
11.0
5.67
-5.67
17.67
17.67
8.0
11.0
5.0
7.33
0.0
8.33
12.67
7.67
-7.33
7.0
15.0
8.67
-4.0
1.33
8.0
-0.67
8.0
12.0
1.0
3.67
-3.33
-2.0
2.33
4.67
0.67
2.0
1.33
7.0
1.33
-6.0
0.33
2.67
2.67
4.0
5.0
6.0
0.67
1.67
-7.0
3.0
5.0
-1.33
-2.67
-1.67
6.33
2.67
-0.67
6.0
1.67
6.0
-2.0
-2.0
3.33
4.0
11.0
1.67
-1.33
6.0
4.67
4.0