File: EDX Back Ups and Old Files/Spectra copy 3.3.23/Samples/Low pH SF 60C 4d/7.25.txt
0.0
18.67
14.33
15.0
7.0
2.67
0.67
-0.67
-0.33
0.33
-1.67
0.67
-0.33
-0.67
2.0
-1.67
-0.33
1.0
1.0
2.33
0.67
4.0
8.33
5.67
4.33
0.33
5.0
-1.33
0.0
-4.67
4.33
8.67
9.0
-0.33
-3.0
4.33
-1.67
2.67
9.67
3.33
1.67
4.33
2.0
1.33
9.0
2.33
5.0
-1.0
-3.67
1.67
2.67
3.33
2.33
2.0
0.67
0.67
3.33
11.0
2.67
1.0
-3.0
7.67
2.0
-1.0
-3.0
-1.33
-2.33
4.0
0.67
3.0
5.0
3.33
1.33
0.0
-0.33
4.33
0.0
2.33
-1.0
-3.0
-0.33
-3.67
-0.67
0.67
-2.33
1.0
2.67
2.33
3.67
1.0
0.67
1.0
-2.0
-1.33
2.0
-2.33
4.33
0.33
4.67
-1.0
0.33
-2.67
-2.33
-5.33
-0.33
-0.67
-7.33
-1.33
-2.0
2.67
0.0
1.33
-6.33
-6.67
-8.67
-5.33
-0.33
1.67
5.67
-11.0
-5.0
-0.67
-5.67
-1.67
-1.0
-4.0
-2.0
-0.67
7.0
-0.67
5.0
-5.33
8.0
52.33
70.33
31.0
3.67
-2.33
-9.0
9.67
3.67
18.67
19.0
-6.33
9.33
12.0
22.33
7.33
1.67
16.33
25.33
38.33
13.33
16.67
17.67
5.33
24.0
13.67
12.67
0.33
-4.0
6.33
5.67
17.67
10.0
8.67
4.33
6.67
16.0
27.0
27.33
37.0
37.33
26.0
22.33
17.67
35.0
28.67
30.33
18.0
20.0
11.67
7.0
8.33
5.0
-3.0
7.0
10.33
10.33
11.33
14.33
11.33
16.67
11.67
23.33
19.33
9.67
0.33
5.0
8.67
12.0
8.33
13.33
8.33
5.0
5.0
6.67
3.0
6.0
1.33
-2.33
4.67
2.33
-0.67
8.33
9.0
-2.0
2.67
-4.67
5.0
-5.33
5.33
-2.33
10.67
8.0
8.67
6.33
-2.67
4.33
7.0
11.67
-3.67
9.67
19.67
7.0
-7.0
6.0
0.33
4.0
-0.67
2.67
3.67
-1.33
4.0
9.0
-1.33
-5.0
2.33
2.0
8.33
0.0
3.0
10.0
9.67
0.67
2.0
-0.67
-1.33
10.67
4.0
-0.67
8.0
7.33
-9.0
6.33
7.67
13.67
11.0
2.0
1.0
4.67
7.67
1.0
1.0
-2.0
2.67
-1.67
3.33
6.33
-0.33
0.33
2.0
2.67
3.0
2.0
3.0
2.33
8.0
1.0
5.67
0.67
3.0
11.67
-1.0