File: EDX Back Ups and Old Files/Spectra copy 3.3.23/Samples/Low pH SF 60C 4d/7.5.txt
0.0
17.67
-21.67
-15.0
-2.0
0.67
1.67
-0.67
-0.33
0.33
-1.67
-0.33
0.67
-0.67
1.0
4.33
-1.33
1.0
1.0
1.33
-1.33
3.0
5.33
6.67
-0.67
1.33
-4.0
-6.33
6.0
5.33
-2.67
-1.33
2.0
6.67
-1.0
1.33
2.33
-2.33
-0.33
5.33
3.67
0.33
2.0
-1.67
0.0
-4.67
3.0
-4.0
1.33
-1.33
6.67
3.33
2.33
1.0
-0.33
2.67
-0.67
11.0
-2.33
-1.0
0.0
1.67
-3.0
1.0
1.0
5.67
-3.33
-3.0
4.67
-1.0
0.0
-1.67
4.33
-1.0
0.67
0.33
0.0
5.33
-2.0
-1.0
-3.33
4.33
0.33
-2.33
0.67
-1.0
3.67
0.33
0.67
-2.0
-1.33
3.0
-1.0
0.67
3.0
1.67
-0.67
-1.67
-0.33
2.0
-0.67
-2.67
1.67
-4.33
-4.33
-0.67
-7.33
-2.33
-2.0
-1.33
-3.0
1.33
-1.33
-3.67
-11.67
-5.33
-6.33
-2.33
-5.33
-12.0
0.0
0.33
-6.67
-8.67
-3.0
-6.0
-2.0
-3.67
-1.0
-2.67
8.0
5.67
3.0
43.33
81.33
35.0
3.67
-0.33
0.0
-1.33
9.67
19.67
7.0
-4.33
8.33
16.0
11.33
6.33
-5.33
15.33
19.33
29.33
32.33
28.67
15.67
19.33
30.0
13.67
6.67
9.33
-5.0
2.33
-0.33
15.67
-2.0
16.67
15.33
10.67
35.0
28.0
59.33
46.0
32.33
32.0
37.33
12.67
25.0
41.67
23.33
34.0
12.0
4.67
7.0
3.33
5.0
11.0
-1.0
8.33
24.33
11.33
31.33
33.33
24.67
9.67
28.33
17.33
15.67
21.33
15.0
23.67
15.0
-6.67
7.33
6.33
16.0
5.0
13.67
1.0
4.0
-4.67
12.67
10.67
-5.67
5.33
9.33
9.0
-6.0
0.67
-1.67
5.0
-6.33
13.33
8.67
24.67
10.0
6.67
5.33
14.33
10.33
10.0
19.67
1.33
15.67
6.67
8.0
7.0
8.0
-9.67
2.0
-2.67
6.67
3.67
9.67
8.0
6.0
6.67
-2.0
2.33
9.0
0.33
-2.0
2.0
-3.0
-2.33
3.67
-6.0
-2.67
1.67
3.67
8.0
2.33
10.0
4.33
-1.0
-1.67
-2.33
-1.33
-1.0
5.0
0.0
6.67
5.67
7.0
-8.0
1.0
-2.33
1.33
0.33
6.33
4.67
6.33
2.0
5.67
5.0
-1.0
1.0
7.33
10.0
14.0
2.67
1.67
1.0
6.67
-2.0