File: EDX Back Ups and Old Files/Spectra copy 3.3.23/Samples/Low pH SF 60C 4d/8.75.txt
0.0
-18.33
-18.67
17.0
14.0
-1.33
-0.33
-0.67
-0.33
-0.67
-1.67
-0.33
-0.33
0.33
2.0
-0.67
1.67
3.0
2.0
0.33
0.67
1.0
5.33
-1.33
3.33
1.33
5.0
-2.33
7.0
0.33
-1.67
3.67
5.0
-0.33
0.0
3.33
4.33
-1.33
0.67
-1.67
2.67
3.33
-4.0
-4.67
0.0
-6.67
-6.0
0.0
9.33
0.67
2.67
-1.67
-2.67
-3.0
0.67
-2.33
2.33
0.0
6.67
9.0
7.0
2.67
0.0
0.0
-5.0
-1.33
-1.33
-5.0
1.67
4.0
-2.0
3.33
-2.67
2.0
0.67
-0.67
-1.0
3.33
0.0
1.0
-1.33
0.33
1.33
-2.33
-2.33
2.0
4.67
3.33
-2.33
6.0
0.67
-1.0
-4.0
-4.33
-2.0
-2.33
-0.67
-3.67
-4.33
-2.0
0.33
-5.67
-3.33
-0.33
-0.33
-1.67
-6.33
-6.33
-3.0
1.67
-4.0
1.33
-0.33
-9.67
-12.67
-4.33
-2.33
-6.33
-3.33
-8.0
0.0
-0.67
-3.67
-1.67
5.0
2.0
-6.0
4.33
-2.0
8.33
7.0
-0.33
8.0
7.33
14.33
9.0
9.67
-0.33
-10.0
-1.33
9.67
15.67
9.0
-1.33
4.33
5.0
2.33
0.33
0.67
5.33
13.33
11.33
30.33
24.67
19.67
24.33
12.0
11.67
4.67
9.33
-7.0
6.33
7.67
21.67
31.0
61.67
31.33
9.67
18.0
17.0
48.33
46.0
38.33
18.0
30.33
22.67
38.0
30.67
30.33
31.0
27.0
24.67
3.0
13.33
2.0
7.0
2.0
12.33
5.33
31.33
19.33
17.33
14.67
22.67
11.33
28.33
14.67
15.33
13.0
10.67
9.0
10.33
10.33
12.33
5.0
3.0
11.67
-3.0
4.0
9.33
6.67
19.67
-0.67
3.33
3.33
14.0
-1.0
2.67
16.33
0.0
0.67
16.33
6.67
7.67
8.0
17.67
-10.67
10.33
7.33
6.0
12.67
0.33
16.67
-1.33
10.0
2.0
4.0
5.33
7.0
-5.67
0.67
-0.33
7.67
9.0
9.0
-3.33
-2.0
-5.67
-5.0
-4.67
7.0
4.0
2.0
-2.33
10.67
-6.0
-5.67
8.67
2.67
4.0
-1.67
-2.0
-6.67
0.0
2.33
3.67
3.67
12.0
-2.0
0.0
3.67
3.67
-2.0
-5.0
3.0
4.67
-1.67
3.33
7.33
5.67
-2.67
2.0
1.67
-1.0
3.0
-2.0
3.33
5.0
10.0
0.67
0.67
-3.0
1.67
1.0