File: EDX Back Ups and Old Files/Spectra copy 3.3.23/Samples/Low pH SF 60C 4d/9.25.txt
0.0
-27.33
37.33
27.0
-1.0
3.67
-1.33
-0.67
-0.33
-0.67
-0.67
-0.33
0.67
0.33
1.0
1.33
0.67
0.0
5.0
0.33
0.67
4.0
1.33
1.67
1.33
1.33
-3.0
-0.33
5.0
-0.67
4.33
4.67
-2.0
-2.33
0.0
1.33
4.33
4.67
0.67
1.33
2.67
10.33
-1.0
2.33
8.0
-10.67
0.0
2.0
7.33
-4.33
1.67
6.33
-3.67
1.0
1.67
5.67
-2.67
8.0
1.67
5.0
-2.0
-0.33
-4.0
3.0
0.0
-1.33
-4.33
-5.0
2.67
-6.0
-2.0
-0.67
-5.67
0.0
-1.33
-1.67
2.0
4.33
-2.0
1.0
-5.33
3.33
-1.67
-2.33
-3.33
-2.0
-1.33
4.33
-1.33
0.0
-2.33
2.0
-3.0
-0.33
2.0
-3.33
-1.67
-5.67
1.67
-2.0
3.33
0.33
-2.33
-3.33
-2.33
0.33
-13.33
-2.33
-4.0
-0.33
-6.0
-0.67
-3.33
-7.67
-7.67
-4.33
-2.33
-7.33
5.67
-4.0
-4.0
-0.67
5.33
-7.67
-2.0
-5.0
7.0
3.33
8.0
-0.67
-3.0
-4.33
5.0
10.33
22.33
15.0
4.67
-3.33
-4.0
4.67
20.67
34.67
37.0
8.67
7.33
-4.0
5.33
-10.67
4.67
12.33
16.33
24.33
38.33
24.67
19.67
1.33
19.0
16.67
8.67
17.33
9.0
3.33
6.67
12.67
26.0
30.67
18.33
9.67
26.0
37.0
60.33
47.0
28.33
31.0
18.33
25.67
32.0
58.67
52.33
65.0
60.0
35.67
23.0
17.33
3.0
-2.0
2.0
20.33
23.33
17.33
13.33
16.33
13.67
8.67
21.33
20.33
9.67
11.33
15.0
3.67
10.0
14.33
9.33
10.33
5.0
12.0
23.67
8.0
-1.0
8.33
7.67
15.67
1.33
9.33
2.33
0.0
0.0
4.67
-0.67
1.0
-0.33
16.33
7.67
15.67
15.0
21.67
-0.67
19.33
6.33
5.0
6.67
-4.67
9.67
13.67
-10.0
3.0
3.0
2.33
1.0
0.33
8.67
5.67
4.67
6.0
-2.0
9.67
-6.0
5.33
5.0
1.33
0.0
0.0
13.0
-0.33
-4.33
0.0
4.33
-0.33
-0.33
9.0
-1.67
1.0
-1.67
6.0
3.33
0.67
1.67
6.0
2.0
3.0
2.67
-4.33
2.0
-10.0
-1.0
3.67
-0.67
3.33
6.33
5.67
3.33
7.0
6.67
2.0
5.0
2.0
-2.67
5.0
3.0
3.67
1.67
1.0
3.67
1.0