File: EDX Back Ups and Old Files/EDX Processed Data/High pH SF 25C 6d.txt
Name: High pH SF 25C 6d
Number of Scans: 29
Positions: [-13.0, -12.75, -12.5, -12.25, -12.0, -11.75, -11.5, -11.25, -11.0, -10.75, -10.5, -10.25, -10.0, -9.75, -9.5, -9.25, -9.0, -8.75, -8.5, -8.25, -8.0, -7.75, -7.5, -7.25, -7.0, -6.75, -6.5, -6.25, -6.0]
Points per Scan: 2048
Sample Edge: 3
Scans Off Sample: [0, 1, 2]
Conversion Features: [(275, 17444.3), (309, 19608.3), (913, 57981.7), (934, 59318.24), (1058, 67244.3)]
Degree of Fit: 3
Fit Coeffecients: [ 8.59183e-07 -0.001482  64.3003 -144.207]
pH: High
Steel Fiber: True
Aging Temp.: 25
Aging Atm.: 100% CO2
Aging Humidity: None
Aging Time: 6

*********
#Bins	Energy [keV]	Avg. Background	-12.25	-12.0	-11.75	-11.5	-11.25	-11.0	-10.75	-10.5	-10.25	-10.0	-9.75	-9.5	-9.25	-9.0	-8.75	-8.5	-8.25	-8.0	-7.75	-7.5	-7.25	-7.0	-6.75	-6.5	-6.25	-6.0
30	1.783	21.33	0.67	4.67	6.67	-4.33	2.67	9.67	-4.33	4.67	-1.33	0.67	8.67	9.67	0.67	1.67	2.67	1.67	7.67	1.67	1.67	3.67	8.67	-3.33	6.67	-4.33	-1.33	5.67
61	3.773	0.67	-0.67	-0.67	0.33	-0.67	0.33	-0.67	-0.67	-0.67	0.33	0.33	-0.67	-0.67	-0.67	1.33	0.33	0.33	-0.67	-0.67	0.33	0.33	-0.67	0.33	-0.67	-0.67	0.33	0.33
92	5.76	0.67	0.33	0.33	-0.67	-0.67	0.33	-0.67	0.33	-0.67	-0.67	0.33	0.33	-0.67	-0.67	1.33	1.33	-0.67	-0.67	1.33	-0.67	-0.67	5.33	0.33	0.33	0.33	0.33	0.33
123	7.744	4.33	-0.33	-0.33	1.67	2.67	1.67	4.67	-1.33	-1.33	-1.33	-0.33	0.67	-0.33	1.67	0.67	-0.33	0.67	-2.33	-2.33	0.67	0.67	-0.33	-0.33	-0.33	-1.33	-0.33	-1.33
154	9.726	8.33	0.67	4.67	-0.33	3.67	1.67	0.67	1.67	2.67	-0.33	4.67	2.67	2.67	0.67	-0.33	1.67	-2.33	4.67	1.67	1.67	-0.33	4.67	5.67	3.67	1.67	9.67	-3.33
185	11.706	13.33	1.67	-3.33	-1.33	-2.33	-6.33	-7.33	-6.33	-2.33	0.67	0.67	1.67	-3.33	4.67	4.67	-7.33	-2.33	-2.33	-5.33	-3.33	3.67	2.67	3.67	-8.33	1.67	-4.33	-1.33
216	13.684	9.67	2.33	0.33	-4.67	-0.67	-2.67	2.33	-1.67	0.33	1.33	2.33	3.33	-0.67	3.33	-1.67	-1.67	2.33	3.33	4.33	-2.67	2.33	0.33	-2.67	4.33	10.33	2.33	-0.67
247	15.661	10.0	2.0	-3.0	3.0	-1.0	6.0	3.0	-2.0	1.0	-2.0	0.0	6.0	-3.0	5.0	-1.0	2.0	2.0	1.0	3.0	5.0	8.0	2.0	-1.0	5.0	1.0	0.0	5.0
278	17.635	10.0	-1.0	3.0	0.0	-1.0	-2.0	2.0	-2.0	0.0	7.0	-2.0	-2.0	-1.0	7.0	8.0	-1.0	-2.0	-2.0	0.0	-3.0	0.0	-5.0	-1.0	5.0	4.0	4.0	3.0
309	19.608	13.0	-2.0	-4.0	-3.0	-6.0	-4.0	0.0	0.0	-5.0	0.0	2.0	3.0	-4.0	-1.0	-4.0	-3.0	-3.0	-4.0	1.0	2.0	-2.0	-2.0	-2.0	-4.0	2.0	12.0	-1.0
340	21.58	9.0	-3.0	-4.0	-2.0	-2.0	4.0	0.0	-1.0	4.0	-1.0	-1.0	1.0	2.0	0.0	0.0	0.0	6.0	2.0	-1.0	-4.0	0.0	-2.0	-2.0	-1.0	-1.0	8.0	5.0
371	23.551	6.0	1.0	2.0	0.0	-1.0	4.0	6.0	0.0	9.0	4.0	3.0	5.0	4.0	2.0	1.0	8.0	1.0	3.0	6.0	1.0	7.0	7.0	6.0	11.0	9.0	6.0	4.0
402	25.521	8.67	2.33	2.33	5.33	-2.67	0.33	-2.67	-1.67	-0.67	4.33	3.33	-1.67	2.33	-0.67	9.33	3.33	-1.67	5.33	-3.67	3.33	0.33	-3.67	0.33	2.33	2.33	-1.67	2.33
433	27.49	6.67	-3.67	2.33	-2.67	0.33	4.33	1.33	4.33	-5.67	0.33	5.33	-0.67	0.33	4.33	5.33	-2.67	2.33	1.33	-0.67	3.33	0.33	7.33	1.33	0.33	-0.67	-0.67	3.33
464	29.458	5.67	-0.67	0.33	2.33	4.33	-0.67	0.33	-0.67	0.33	8.33	5.33	2.33	0.33	1.33	8.33	9.33	0.33	3.33	-0.67	-3.67	3.33	-0.67	2.33	0.33	6.33	3.33	7.33
495	31.426	5.0	-4.0	-3.0	0.0	-1.0	-3.0	3.0	1.0	6.0	1.0	2.0	-1.0	2.0	-1.0	3.0	2.0	2.0	3.0	4.0	1.0	1.0	2.0	0.0	2.0	2.0	2.0	2.0
526	33.393	6.67	0.33	-1.67	-0.67	0.33	-1.67	-4.67	-0.67	5.33	2.33	1.33	-2.67	-1.67	-2.67	2.33	-1.67	-3.67	0.33	-4.67	-1.67	2.33	-3.67	0.33	-0.67	1.33	0.33	-1.67
557	35.36	3.67	1.33	2.33	-1.67	2.33	1.33	-1.67	0.33	3.33	2.33	2.33	-2.67	2.33	3.33	-1.67	3.33	0.33	2.33	1.33	3.33	7.33	1.33	-1.67	2.33	1.33	4.33	6.33
588	37.327	6.33	-1.33	-1.33	-2.33	-0.33	-3.33	0.67	-0.33	4.67	0.67	-5.33	0.67	-5.33	-0.33	0.67	-0.33	-0.33	1.67	-1.33	1.67	2.67	-0.33	0.67	2.67	0.67	-2.33	7.67
619	39.294	6.33	3.67	0.67	-2.33	0.67	0.67	-3.33	-0.33	-2.33	-1.33	0.67	-1.33	0.67	-0.33	-4.33	2.67	0.67	-0.33	-1.33	-1.33	-4.33	-4.33	-2.33	-1.33	-2.33	0.67	1.67
650	41.261	8.0	1.0	-2.0	-1.0	3.0	-5.0	-5.0	-2.0	-5.0	4.0	-4.0	-2.0	-2.0	-4.0	2.0	1.0	-1.0	-4.0	-5.0	4.0	-5.0	-6.0	-3.0	-2.0	-1.0	-1.0	-1.0
681	43.228	8.67	-2.67	0.33	-2.67	-3.67	-5.67	-5.67	-5.67	-1.67	-5.67	0.33	-4.67	-3.67	0.33	-2.67	-2.67	-3.67	-2.67	-0.67	-2.67	-1.67	1.33	-3.67	-3.67	0.33	-2.67	-5.67
712	45.196	8.33	-3.33	1.67	0.67	-2.33	2.67	-3.33	-1.33	-0.33	-2.33	3.67	0.67	-0.33	6.67	-1.33	-3.33	0.67	0.67	-6.33	-0.33	-0.33	-0.33	-5.33	1.67	-4.33	0.67	1.67
743	47.165	8.0	2.0	4.0	-5.0	-1.0	8.0	0.0	0.0	-6.0	-4.0	-3.0	2.0	3.0	-2.0	4.0	-4.0	1.0	7.0	0.0	-1.0	1.0	3.0	-2.0	-1.0	-1.0	0.0	-1.0
774	49.135	9.0	2.0	3.0	-3.0	-5.0	-2.0	0.0	-2.0	-1.0	1.0	2.0	3.0	-2.0	-1.0	2.0	5.0	3.0	-1.0	-3.0	-4.0	0.0	-3.0	4.0	2.0	1.0	-3.0	-1.0
805	51.105	13.33	-7.33	-7.33	-4.33	-4.33	-1.33	0.67	-1.33	15.67	11.67	20.67	20.67	15.67	16.67	17.67	17.67	11.67	15.67	7.67	12.67	7.67	1.67	9.67	15.67	11.67	11.67	7.67
836	53.077	14.0	-6.0	-8.0	5.0	-4.0	-2.0	0.0	4.0	2.0	-2.0	6.0	-2.0	-5.0	-4.0	-6.0	-5.0	1.0	-5.0	0.0	-8.0	-3.0	-5.0	-3.0	-3.0	-3.0	-2.0	4.0
867	55.05	13.33	-5.33	2.67	5.67	2.67	2.67	0.67	-1.33	-6.33	-1.33	3.67	-4.33	-5.33	-2.33	6.67	-1.33	-4.33	-5.33	3.67	-4.33	-0.33	-2.33	-6.33	-5.33	-2.33	0.67	2.67
898	57.025	13.67	3.33	1.33	-2.67	-4.67	-2.67	0.33	-2.67	1.33	0.33	-1.67	-2.67	-4.67	-0.67	5.33	-0.67	-0.67	6.33	-0.67	-1.67	-4.67	-0.67	-1.67	1.33	2.33	6.33	3.33
929	59.001	13.0	7.0	2.0	6.0	2.0	5.0	-5.0	-2.0	5.0	2.0	7.0	8.0	0.0	0.0	6.0	13.0	6.0	1.0	2.0	2.0	3.0	0.0	6.0	3.0	10.0	-1.0	0.0
960	60.978	17.0	-7.0	4.0	-5.0	4.0	0.0	-5.0	-6.0	-3.0	-1.0	-2.0	-1.0	0.0	-8.0	-3.0	5.0	-4.0	-11.0	-10.0	-3.0	0.0	0.0	-6.0	-4.0	1.0	-8.0	-7.0
991	62.958	15.33	-2.33	0.67	2.67	9.67	9.67	1.67	0.67	2.67	0.67	2.67	-0.33	-0.33	4.67	-4.33	-1.33	2.67	-1.33	1.67	-3.33	-2.33	8.67	7.67	-3.33	3.67	-0.33	-5.33
1022	64.94	11.67	14.33	26.33	20.33	5.33	13.33	11.33	4.33	15.33	11.33	14.33	18.33	8.33	8.33	9.33	15.33	16.33	9.33	7.33	7.33	8.33	12.33	14.33	11.33	9.33	5.33	11.33
1053	66.924	18.33	5.67	5.67	1.67	1.67	7.67	6.67	8.67	12.67	6.67	1.67	3.67	0.67	3.67	6.67	0.67	-3.33	10.67	7.67	8.67	0.67	9.67	-6.33	3.67	-1.33	8.67	-2.33
1084	68.91	8.67	9.33	7.33	14.33	11.33	12.33	12.33	15.33	8.33	13.33	7.33	6.33	9.33	11.33	13.33	13.33	6.33	6.33	14.33	11.33	11.33	16.33	10.33	8.33	14.33	19.33	11.33
1115	70.899	13.0	5.0	2.0	4.0	5.0	7.0	12.0	5.0	10.0	9.0	4.0	1.0	0.0	10.0	8.0	1.0	1.0	11.0	2.0	8.0	5.0	5.0	3.0	11.0	4.0	6.0	3.0
1146	72.891	25.67	6.33	0.33	6.33	11.33	16.33	12.33	0.33	13.33	8.33	5.33	17.33	20.33	6.33	9.33	13.33	14.33	3.33	8.33	13.33	6.33	14.33	1.33	5.33	11.33	12.33	14.33
1177	74.885	29.67	-2.67	8.33	4.33	-1.67	0.33	9.33	5.33	3.33	3.33	8.33	8.33	17.33	0.33	9.33	0.33	7.33	9.33	14.33	10.33	8.33	17.33	9.33	11.33	10.33	1.33	5.33
1208	76.883	15.67	2.33	11.33	7.33	1.33	4.33	7.33	10.33	13.33	3.33	9.33	8.33	10.33	6.33	3.33	7.33	0.33	-0.67	9.33	10.33	7.33	3.33	2.33	17.33	4.33	1.33	0.33
1239	78.883	12.33	-2.33	12.67	16.67	9.67	13.67	11.67	13.67	9.67	7.67	8.67	6.67	6.67	3.67	9.67	7.67	20.67	9.67	2.67	11.67	3.67	6.67	9.67	8.67	9.67	10.67	10.67
1270	80.887	11.67	7.33	10.33	10.33	13.33	17.33	10.33	15.33	13.33	13.33	21.33	12.33	10.33	14.33	11.33	12.33	12.33	20.33	10.33	7.33	9.33	11.33	14.33	11.33	14.33	16.33	11.33
1301	82.894	13.67	83.33	108.33	118.33	108.33	102.33	83.33	84.33	67.33	41.33	45.33	70.33	50.33	41.33	53.33	57.33	54.33	47.33	49.33	49.33	51.33	46.33	51.33	42.33	55.33	43.33	38.33
1332	84.905	26.0	73.0	91.0	95.0	86.0	75.0	77.0	68.0	62.0	32.0	34.0	40.0	37.0	33.0	44.0	24.0	42.0	24.0	26.0	30.0	27.0	27.0	26.0	41.0	35.0	37.0	39.0
1363	86.92	20.67	4.33	7.33	6.33	6.33	2.33	0.33	10.33	8.33	14.33	21.33	17.33	7.33	7.33	4.33	-3.67	7.33	12.33	13.33	17.33	8.33	2.33	9.33	10.33	17.33	4.33	17.33
1394	88.938	25.0	0.0	4.0	-7.0	1.0	3.0	-6.0	12.0	2.0	2.0	13.0	-4.0	1.0	-2.0	8.0	5.0	4.0	4.0	4.0	-4.0	11.0	4.0	-1.0	2.0	10.0	5.0	9.0
1425	90.961	23.0	7.0	7.0	10.0	4.0	5.0	13.0	14.0	9.0	7.0	-2.0	11.0	13.0	13.0	9.0	5.0	8.0	5.0	18.0	2.0	4.0	9.0	4.0	-1.0	7.0	4.0	10.0
1456	92.987	28.67	6.33	10.33	9.33	-6.67	9.33	-3.67	3.33	5.33	5.33	2.33	8.33	5.33	3.33	-0.67	4.33	4.33	10.33	-1.67	1.33	-0.67	2.33	2.33	4.33	8.33	8.33	5.33
1487	95.018	30.33	-2.33	2.67	4.67	-3.33	-2.33	6.67	14.67	6.67	7.67	6.67	5.67	0.67	7.67	10.67	2.67	10.67	8.67	7.67	2.67	5.67	5.67	7.67	1.67	2.67	-0.33	-4.33
1518	97.054	31.0	5.0	-1.0	1.0	6.0	-1.0	5.0	3.0	5.0	29.0	26.0	26.0	24.0	41.0	30.0	22.0	23.0	21.0	15.0	23.0	14.0	33.0	18.0	13.0	30.0	30.0	20.0
1549	99.094	27.0	11.0	2.0	5.0	11.0	10.0	-2.0	11.0	21.0	17.0	10.0	12.0	13.0	12.0	14.0	5.0	8.0	10.0	8.0	11.0	13.0	6.0	17.0	13.0	7.0	18.0	21.0
1580	101.14	31.0	1.0	4.0	-7.0	9.0	-5.0	9.0	-5.0	5.0	6.0	3.0	1.0	2.0	1.0	1.0	-6.0	15.0	7.0	8.0	2.0	-5.0	-1.0	8.0	14.0	2.0	8.0	8.0
1611	103.19	25.33	11.67	15.67	18.67	8.67	13.67	10.67	11.67	-0.33	10.67	15.67	4.67	13.67	5.67	-6.33	10.67	11.67	5.67	6.67	16.67	25.67	17.67	3.67	13.67	14.67	-1.33	9.67
1642	105.245	22.0	12.0	2.0	4.0	7.0	10.0	17.0	11.0	17.0	9.0	6.0	4.0	-1.0	14.0	5.0	13.0	11.0	12.0	6.0	9.0	6.0	10.0	11.0	6.0	13.0	9.0	6.0
1673	107.305	25.33	-3.33	2.67	-1.33	-6.33	-10.33	15.67	3.67	0.67	-0.33	-1.33	-3.33	0.67	-0.33	5.67	8.67	1.67	-5.33	-1.33	19.67	6.67	1.67	2.67	3.67	9.67	-1.33	6.67
1704	109.371	21.67	6.33	0.33	4.33	-10.67	-2.67	12.33	10.33	1.33	2.33	7.33	3.33	-2.67	4.33	8.33	4.33	6.33	5.33	-5.67	10.33	1.33	12.33	4.33	6.33	1.33	8.33	2.33
1735	111.443	15.33	12.67	9.67	7.67	8.67	-0.33	14.67	10.67	14.67	5.67	6.67	9.67	13.67	9.67	13.67	-2.33	8.67	13.67	10.67	18.67	3.67	3.67	9.67	6.67	7.67	3.67	9.67
1766	113.52	18.33	6.67	3.67	8.67	2.67	-1.33	0.67	14.67	1.67	-1.33	2.67	8.67	14.67	5.67	-3.33	8.67	12.67	1.67	2.67	-5.33	11.67	5.67	4.67	9.67	4.67	4.67	-2.33
1797	115.604	20.67	-4.67	-2.67	-2.67	-10.67	-4.67	-3.67	-6.67	-8.67	1.33	5.33	-6.67	2.33	-1.67	-1.67	-2.67	-4.67	-6.67	-7.67	6.33	-2.67	0.33	-4.67	4.33	0.33	4.33	-0.67
1828	117.693	11.0	1.0	5.0	4.0	11.0	11.0	11.0	4.0	3.0	7.0	3.0	3.0	9.0	4.0	11.0	5.0	2.0	1.0	8.0	11.0	2.0	9.0	1.0	9.0	4.0	8.0	9.0
1859	119.788	9.33	1.67	0.67	8.67	13.67	3.67	6.67	7.67	10.67	3.67	4.67	0.67	-0.33	5.67	10.67	6.67	6.67	11.67	4.67	1.67	3.67	5.67	9.67	2.67	12.67	11.67	8.67
1890	121.89	14.33	-4.33	5.67	-2.33	-2.33	0.67	0.67	-3.33	-2.33	-8.33	2.67	4.67	2.67	-0.33	-0.33	0.67	1.67	1.67	0.67	2.67	-4.33	-2.33	2.67	5.67	1.67	-1.33	-3.33
1921	123.999	10.67	0.33	2.33	4.33	8.33	7.33	5.33	7.33	3.33	-1.67	5.33	7.33	4.33	2.33	5.33	-4.67	7.33	5.33	2.33	-0.67	3.33	0.33	4.33	2.33	7.33	3.33	3.33
1952	126.114	11.67	0.33	-1.67	3.33	-5.67	-0.67	4.33	-2.67	3.33	4.33	6.33	3.33	-3.67	8.33	1.33	4.33	0.33	-1.67	4.33	-5.67	-3.67	2.33	0.33	-0.67	-1.67	-1.67	-2.67
1983	128.235	7.33	-1.33	1.67	-0.33	0.67	8.67	4.67	4.67	0.67	5.67	-1.33	-0.33	-0.33	4.67	1.67	2.67	7.67	3.67	3.67	1.67	2.67	4.67	-0.33	9.67	5.67	-2.33	3.67
2014	130.364	8.67	2.33	2.33	-0.67	1.33	-1.67	4.33	1.33	1.33	3.33	-2.67	-4.67	2.33	-0.67	-4.67	-0.67	0.33	-3.67	0.33	-1.67	-6.67	1.33	-3.67	0.33	-1.67	3.33	-4.67
2045	132.5	7.33	3.67	6.67	-1.33	7.67	-0.33	-0.33	2.67	-0.33	2.67	1.67	-2.33	0.67	2.67	0.67	8.67	2.67	-3.33	0.67	-4.33	0.67	-1.33	7.67	4.67	-0.33	-0.33	7.67
2047	132.638	9.0	1.0	2.0	-2.0	-2.0	2.0	-1.0	0.0	0.0	-6.0	0.0	1.0	0.0	-3.0	1.0	-2.0	-1.0	-2.0	-2.0	-1.0	2.0	0.0	-1.0	-1.0	1.0	0.0	-2.0