File: EDX Back Ups and Old Files/EDX Processed Data/High pH BL 60C 2d.txt
Name: High pH BL 60C 2d
Number of Scans: 29
Positions: [-13.0, -12.75, -12.5, -12.25, -12.0, -11.75, -11.5, -11.25, -11.0, -10.75, -10.5, -10.25, -10.0, -9.75, -9.5, -9.25, -9.0, -8.75, -8.5, -8.25, -8.0, -7.75, -7.5, -7.25, -7.0, -6.75, -6.5, -6.25, -6.0]
Points per Scan: 2048
Sample Edge: 3
Scans Off Sample: [0, 1, 2]
Conversion Features: [(275, 17444.3), (309, 19608.3), (913, 57981.7), (934, 59318.24), (1058, 67244.3)]
Degree of Fit: 3
Fit Coeffecients: [ 8.59183e-07 -0.001482  64.3003 -144.207]
pH: High
Steel Fiber: False
Aging Temp.: 60
Aging Atm.: 100% CO2
Aging Humidity: None
Aging Time: 2

*********
#Bins	Energy [keV]	Avg. Background	-12.25	-12.0	-11.75	-11.5	-11.25	-11.0	-10.75	-10.5	-10.25	-10.0	-9.75	-9.5	-9.25	-9.0	-8.75	-8.5	-8.25	-8.0	-7.75	-7.5	-7.25	-7.0	-6.75	-6.5	-6.25	-6.0
30	1.783	19.0	6.0	8.0	0.0	-1.0	4.0	3.0	7.0	15.0	-3.0	5.0	-5.0	1.0	-3.0	7.0	11.0	-3.0	4.0	-3.0	-2.0	1.0	1.0	9.0	3.0	1.0	8.0	7.0
61	3.773	0.33	1.67	1.67	-0.33	-0.33	0.67	-0.33	-0.33	-0.33	-0.33	0.67	0.67	-0.33	-0.33	-0.33	-0.33	-0.33	-0.33	0.67	-0.33	-0.33	-0.33	-0.33	1.67	0.67	0.67	-0.33
92	5.76	0.0	0.0	1.0	2.0	0.0	2.0	1.0	0.0	0.0	1.0	0.0	0.0	1.0	0.0	0.0	0.0	0.0	2.0	4.0	1.0	0.0	1.0	2.0	0.0	2.0	0.0	0.0
123	7.744	5.67	-2.67	-3.67	0.33	0.33	-2.67	-0.67	-1.67	-3.67	-1.67	-0.67	0.33	-0.67	1.33	-1.67	-0.67	-0.67	-2.67	-0.67	-2.67	-0.67	-2.67	0.33	0.33	3.33	1.33	-2.67
154	9.726	10.33	1.67	-3.33	-1.33	9.67	6.67	0.67	-4.33	3.67	6.67	7.67	-0.33	3.67	3.67	-1.33	5.67	-2.33	3.67	0.67	0.67	4.67	5.67	1.67	-0.33	5.67	4.67	2.67
185	11.706	11.67	2.33	-2.67	-4.67	-1.67	1.33	-1.67	-4.67	2.33	-2.67	-1.67	2.33	1.33	4.33	5.33	3.33	-0.67	-0.67	-0.67	-0.67	-0.67	-0.67	0.33	-3.67	-2.67	-0.67	2.33
216	13.684	11.33	-7.33	1.67	1.67	-2.33	3.67	0.67	-0.33	-0.33	-1.33	1.67	1.67	-0.33	0.67	0.67	0.67	5.67	-0.33	-0.33	0.67	0.67	-1.33	8.67	2.67	-1.33	4.67	-1.33
247	15.661	7.67	4.33	4.33	6.33	9.33	9.33	2.33	7.33	6.33	6.33	-0.67	3.33	2.33	5.33	12.33	13.33	5.33	-3.67	0.33	8.33	5.33	9.33	4.33	-0.67	4.33	5.33	9.33
278	17.635	12.33	-2.33	1.67	-0.33	-1.33	-1.33	-3.33	5.67	-2.33	6.67	0.67	0.67	2.67	2.67	-7.33	0.67	-1.33	-3.33	9.67	-5.33	-1.33	-2.33	0.67	9.67	-3.33	-2.33	3.67
309	19.608	10.67	0.33	3.33	3.33	2.33	8.33	4.33	-2.67	-2.67	-7.67	-0.67	0.33	0.33	8.33	-0.67	0.33	4.33	0.33	4.33	-0.67	-0.67	-1.67	5.33	-1.67	9.33	6.33	5.33
340	21.58	9.67	1.33	5.33	1.33	-1.67	4.33	5.33	4.33	6.33	0.33	3.33	-1.67	2.33	-7.67	9.33	-5.67	4.33	6.33	4.33	1.33	7.33	-4.67	1.33	1.33	2.33	5.33	4.33
371	23.551	9.67	1.33	-1.67	-1.67	-2.67	-0.67	5.33	1.33	-3.67	2.33	0.33	0.33	3.33	-1.67	3.33	-0.67	-0.67	1.33	0.33	-2.67	1.33	4.33	0.33	-2.67	-5.67	-1.67	1.33
402	25.521	11.33	-1.33	-6.33	-2.33	-3.33	7.67	-5.33	-4.33	5.67	-2.33	-0.33	0.67	-3.33	-0.33	-3.33	-0.33	-2.33	-1.33	-4.33	1.67	-1.33	-3.33	-3.33	4.67	-2.33	10.67	-1.33
433	27.49	6.33	-0.33	-0.33	5.67	6.67	-3.33	-0.33	1.67	2.67	-0.33	1.67	1.67	5.67	1.67	2.67	5.67	-1.33	-1.33	-1.33	6.67	3.67	4.67	4.67	1.67	-1.33	2.67	9.67
464	29.458	5.0	6.0	1.0	1.0	6.0	1.0	1.0	2.0	5.0	2.0	-2.0	1.0	2.0	4.0	0.0	1.0	3.0	8.0	3.0	1.0	3.0	4.0	2.0	11.0	9.0	2.0	0.0
495	31.426	6.0	0.0	2.0	3.0	2.0	-2.0	-3.0	3.0	0.0	1.0	-1.0	5.0	1.0	5.0	2.0	2.0	1.0	0.0	2.0	-3.0	1.0	10.0	3.0	4.0	0.0	4.0	-1.0
526	33.393	4.67	1.33	1.33	-0.67	2.33	3.33	-1.67	0.33	0.33	3.33	3.33	-0.67	2.33	-0.67	2.33	5.33	7.33	5.33	5.33	0.33	4.33	-0.67	1.33	6.33	0.33	1.33	2.33
557	35.36	5.33	-1.33	0.67	2.67	-2.33	-4.33	0.67	-0.33	0.67	1.67	-1.33	3.67	-0.33	-0.33	3.67	1.67	-1.33	-0.33	-0.33	0.67	-2.33	4.67	0.67	1.67	0.67	-2.33	-1.33
588	37.327	4.33	2.67	0.67	-2.33	5.67	0.67	1.67	-2.33	3.67	2.67	1.67	6.67	-1.33	6.67	1.67	4.67	-1.33	3.67	2.67	1.67	0.67	0.67	4.67	0.67	1.67	-2.33	-0.33
619	39.294	7.67	-3.67	-1.67	-1.67	-2.67	-0.67	0.33	0.33	1.33	-3.67	-3.67	1.33	2.33	-3.67	-3.67	1.33	-2.67	-0.67	2.33	-5.67	-2.67	-0.67	-1.67	-2.67	-0.67	-1.67	0.33
650	41.261	4.67	-2.67	1.33	2.33	3.33	-2.67	2.33	-3.67	-2.67	1.33	0.33	2.33	-0.67	2.33	2.33	6.33	2.33	-2.67	4.33	-0.67	0.33	3.33	0.33	1.33	0.33	2.33	2.33
681	43.228	6.0	0.0	1.0	-2.0	-4.0	-1.0	-1.0	4.0	-1.0	0.0	0.0	1.0	0.0	-2.0	-2.0	0.0	6.0	3.0	3.0	-1.0	-4.0	1.0	1.0	3.0	-1.0	-1.0	-1.0
712	45.196	4.33	8.67	2.67	1.67	-1.33	1.67	5.67	0.67	1.67	6.67	0.67	0.67	5.67	-2.33	7.67	6.67	6.67	6.67	1.67	2.67	1.67	1.67	11.67	6.67	4.67	1.67	3.67
743	47.165	8.0	2.0	-2.0	-2.0	-1.0	0.0	1.0	2.0	-4.0	0.0	-1.0	3.0	-3.0	-2.0	3.0	7.0	1.0	4.0	-3.0	-3.0	1.0	2.0	-1.0	-2.0	1.0	1.0	-4.0
774	49.135	9.33	4.67	0.67	6.67	4.67	3.67	3.67	4.67	-3.33	1.67	0.67	0.67	0.67	2.67	0.67	0.67	-2.33	-1.33	3.67	-4.33	-2.33	-2.33	6.67	-2.33	0.67	-3.33	-6.33
805	51.105	9.0	2.0	6.0	1.0	6.0	4.0	0.0	2.0	3.0	5.0	11.0	11.0	18.0	18.0	24.0	29.0	25.0	30.0	22.0	34.0	15.0	17.0	16.0	11.0	19.0	20.0	14.0
836	53.077	8.0	8.0	7.0	3.0	10.0	2.0	3.0	0.0	7.0	6.0	5.0	8.0	5.0	9.0	6.0	6.0	-2.0	3.0	8.0	7.0	7.0	11.0	8.0	10.0	6.0	-2.0	5.0
867	55.05	7.0	7.0	8.0	5.0	4.0	6.0	2.0	1.0	11.0	3.0	4.0	9.0	5.0	7.0	2.0	1.0	6.0	1.0	4.0	3.0	3.0	5.0	14.0	9.0	3.0	6.0	8.0
898	57.025	9.33	4.67	3.67	5.67	2.67	6.67	9.67	-2.33	3.67	12.67	1.67	6.67	2.67	2.67	2.67	8.67	2.67	1.67	-1.33	6.67	11.67	0.67	-1.33	4.67	10.67	5.67	1.67
929	59.001	15.67	8.33	6.33	6.33	-2.67	2.33	6.33	0.33	2.33	-1.67	9.33	-0.67	-0.67	5.33	7.33	0.33	-0.67	-1.67	7.33	1.33	1.33	-1.67	8.33	-2.67	-4.67	3.33	-5.67
960	60.978	10.67	7.33	4.33	7.33	6.33	10.33	8.33	6.33	0.33	0.33	3.33	8.33	2.33	1.33	1.33	1.33	7.33	1.33	6.33	8.33	-0.67	0.33	-0.67	7.33	10.33	-2.67	2.33
991	62.958	8.33	12.67	-1.33	9.67	10.67	15.67	11.67	6.67	5.67	7.67	9.67	7.67	15.67	12.67	4.67	7.67	14.67	12.67	-1.33	6.67	10.67	12.67	4.67	4.67	4.67	5.67	14.67
1022	64.94	12.33	23.67	19.67	26.67	17.67	15.67	21.67	16.67	19.67	12.67	12.67	18.67	12.67	16.67	13.67	14.67	14.67	10.67	15.67	14.67	6.67	10.67	9.67	11.67	10.67	12.67	3.67
1053	66.924	9.67	13.33	16.33	13.33	9.33	16.33	18.33	13.33	8.33	5.33	11.33	7.33	12.33	9.33	9.33	5.33	12.33	9.33	10.33	23.33	7.33	20.33	14.33	12.33	13.33	7.33	10.33
1084	68.91	17.0	3.0	0.0	5.0	-1.0	0.0	8.0	1.0	12.0	6.0	6.0	12.0	-3.0	7.0	6.0	3.0	-2.0	3.0	0.0	7.0	9.0	8.0	2.0	-1.0	3.0	2.0	8.0
1115	70.899	10.33	-3.33	6.67	5.67	12.67	10.67	4.67	15.67	18.67	5.67	2.67	12.67	1.67	10.67	10.67	-0.33	6.67	12.67	19.67	10.67	16.67	11.67	6.67	13.67	6.67	8.67	9.67
1146	72.891	28.0	1.0	0.0	9.0	2.0	13.0	13.0	2.0	0.0	9.0	10.0	6.0	12.0	6.0	19.0	14.0	7.0	9.0	10.0	14.0	16.0	6.0	11.0	7.0	6.0	0.0	5.0
1177	74.885	36.33	9.67	15.67	2.67	9.67	-7.33	5.67	0.67	10.67	7.67	-2.33	5.67	0.67	-1.33	-2.33	0.67	1.67	-5.33	8.67	7.67	4.67	18.67	8.67	6.67	6.67	5.67	5.67
1208	76.883	11.33	10.67	6.67	5.67	9.67	9.67	11.67	8.67	16.67	8.67	6.67	5.67	9.67	8.67	16.67	0.67	6.67	4.67	8.67	8.67	18.67	14.67	9.67	9.67	6.67	9.67	4.67
1239	78.883	16.0	2.0	8.0	7.0	11.0	7.0	5.0	12.0	5.0	10.0	5.0	5.0	4.0	10.0	10.0	6.0	10.0	10.0	5.0	10.0	16.0	16.0	4.0	3.0	1.0	5.0	0.0
1270	80.887	14.33	6.67	2.67	19.67	11.67	18.67	-0.33	8.67	10.67	12.67	19.67	19.67	12.67	9.67	18.67	7.67	20.67	17.67	19.67	22.67	21.67	14.67	13.67	17.67	8.67	24.67	6.67
1301	82.894	15.67	68.33	116.33	103.33	132.33	104.33	117.33	89.33	88.33	76.33	66.33	72.33	50.33	51.33	47.33	45.33	48.33	49.33	52.33	42.33	57.33	40.33	63.33	44.33	50.33	51.33	36.33
1332	84.905	27.33	47.67	71.67	71.67	64.67	85.67	70.67	78.67	66.67	68.67	39.67	54.67	44.67	43.67	41.67	42.67	29.67	37.67	46.67	50.67	32.67	28.67	28.67	39.67	30.67	41.67	42.67
1363	86.92	17.33	5.67	15.67	17.67	11.67	16.67	14.67	10.67	20.67	17.67	18.67	15.67	12.67	15.67	21.67	11.67	25.67	17.67	10.67	15.67	14.67	11.67	11.67	21.67	10.67	18.67	16.67
1394	88.938	25.33	2.67	3.67	-0.33	8.67	12.67	16.67	10.67	3.67	7.67	8.67	20.67	13.67	2.67	1.67	-1.33	3.67	1.67	8.67	5.67	7.67	20.67	15.67	5.67	8.67	2.67	8.67
1425	90.961	22.33	-4.33	7.67	7.67	5.67	10.67	16.67	25.67	14.67	17.67	20.67	18.67	19.67	11.67	8.67	12.67	17.67	6.67	16.67	6.67	19.67	9.67	10.67	16.67	0.67	8.67	14.67
1456	92.987	27.67	-2.67	4.33	4.33	2.33	13.33	8.33	2.33	12.33	7.33	18.33	19.33	10.33	14.33	7.33	19.33	8.33	16.33	10.33	12.33	6.33	11.33	10.33	3.33	22.33	14.33	5.33
1487	95.018	37.0	1.0	0.0	-2.0	-1.0	4.0	9.0	-8.0	-2.0	2.0	-1.0	17.0	5.0	4.0	14.0	-4.0	-11.0	6.0	-2.0	-5.0	7.0	11.0	0.0	6.0	8.0	13.0	4.0
1518	97.054	32.0	9.0	16.0	12.0	12.0	11.0	5.0	5.0	13.0	22.0	7.0	18.0	30.0	21.0	54.0	21.0	30.0	28.0	41.0	23.0	33.0	20.0	29.0	25.0	41.0	26.0	33.0
1549	99.094	41.0	-9.0	-5.0	-4.0	1.0	2.0	-5.0	-7.0	-6.0	-11.0	-3.0	-4.0	2.0	1.0	0.0	-6.0	6.0	3.0	-4.0	-6.0	4.0	6.0	0.0	-3.0	-6.0	4.0	-2.0
1580	101.14	29.67	16.33	12.33	6.33	11.33	-2.67	3.33	-1.67	-1.67	8.33	10.33	7.33	3.33	7.33	-2.67	7.33	4.33	13.33	18.33	21.33	7.33	9.33	-1.67	12.33	8.33	12.33	1.33
1611	103.19	26.67	4.33	9.33	24.33	15.33	16.33	15.33	25.33	18.33	16.33	13.33	25.33	-4.67	16.33	13.33	12.33	9.33	13.33	5.33	11.33	11.33	8.33	18.33	8.33	16.33	14.33	17.33
1642	105.245	28.33	0.67	-2.33	14.67	15.67	-6.33	2.67	14.67	1.67	-2.33	5.67	5.67	4.67	3.67	-6.33	3.67	-3.33	6.67	0.67	4.67	-6.33	-3.33	1.67	2.67	4.67	7.67	7.67
1673	107.305	28.67	-8.67	5.33	5.33	2.33	2.33	5.33	0.33	-3.67	-1.67	7.33	5.33	1.33	0.33	-4.67	4.33	7.33	0.33	1.33	0.33	4.33	-6.67	-4.67	-3.67	4.33	-9.67	-1.67
1704	109.371	26.0	-7.0	-1.0	9.0	-4.0	1.0	2.0	6.0	6.0	2.0	6.0	1.0	5.0	8.0	3.0	7.0	5.0	1.0	-1.0	2.0	9.0	-1.0	-1.0	6.0	3.0	4.0	6.0
1735	111.443	23.0	-3.0	5.0	8.0	-3.0	5.0	-5.0	-4.0	5.0	6.0	12.0	9.0	-1.0	11.0	4.0	-5.0	0.0	2.0	10.0	7.0	1.0	10.0	9.0	1.0	2.0	2.0	10.0
1766	113.52	18.33	3.67	8.67	17.67	2.67	1.67	1.67	10.67	12.67	5.67	2.67	3.67	2.67	1.67	-1.33	2.67	-0.33	18.67	10.67	2.67	7.67	9.67	8.67	8.67	-0.33	8.67	6.67
1797	115.604	19.33	-1.33	-4.33	-0.33	2.67	-4.33	-7.33	-1.33	-1.33	-2.33	-9.33	-4.33	2.67	3.67	3.67	0.67	-0.33	7.67	5.67	-1.33	-3.33	8.67	-2.33	-4.33	-1.33	1.67	2.67
1828	117.693	17.33	-0.33	4.67	-8.33	-5.33	5.67	5.67	-3.33	3.67	0.67	5.67	5.67	4.67	1.67	-4.33	-1.33	6.67	1.67	5.67	0.67	0.67	-3.33	-4.33	3.67	-3.33	-1.33	3.67
1859	119.788	13.33	-0.33	0.67	3.67	-5.33	4.67	1.67	2.67	1.67	3.67	5.67	0.67	0.67	-1.33	0.67	1.67	0.67	-2.33	9.67	5.67	7.67	3.67	0.67	1.67	-1.33	6.67	9.67
1890	121.89	11.33	0.67	5.67	-3.33	2.67	4.67	-0.33	0.67	3.67	-4.33	4.67	9.67	6.67	9.67	3.67	0.67	0.67	1.67	5.67	4.67	14.67	9.67	5.67	5.67	0.67	5.67	8.67
1921	123.999	10.33	2.67	-3.33	8.67	15.67	11.67	0.67	2.67	0.67	5.67	4.67	-0.33	3.67	0.67	1.67	2.67	3.67	7.67	0.67	7.67	-0.33	2.67	5.67	5.67	-1.33	1.67	13.67
1952	126.114	11.33	4.67	-1.33	-2.33	-1.33	1.67	1.67	-2.33	0.67	2.67	5.67	2.67	-0.33	-0.33	1.67	2.67	9.67	-0.33	1.67	3.67	-2.33	1.67	-3.33	6.67	-0.33	-0.33	1.67
1983	128.235	6.33	5.67	-1.33	3.67	2.67	3.67	4.67	-0.33	3.67	2.67	-1.33	5.67	4.67	5.67	9.67	2.67	7.67	6.67	7.67	4.67	4.67	1.67	-0.33	5.67	-0.33	4.67	1.67
2014	130.364	11.33	-2.33	-1.33	-3.33	-1.33	1.67	-3.33	-5.33	-1.33	-4.33	-3.33	-2.33	-4.33	-2.33	-2.33	-0.33	-3.33	-0.33	-6.33	-1.33	-2.33	-2.33	-1.33	-1.33	-8.33	2.67	-4.33
2045	132.5	8.0	-1.0	0.0	5.0	1.0	1.0	-1.0	5.0	2.0	1.0	3.0	0.0	0.0	3.0	-1.0	8.0	3.0	1.0	4.0	5.0	7.0	7.0	6.0	1.0	-2.0	2.0	2.0
2047	132.638	7.67	4.33	2.33	-1.67	-2.67	-1.67	-0.67	-0.67	-2.67	-3.67	4.33	1.33	5.33	-0.67	2.33	0.33	6.33	4.33	0.33	0.33	0.33	2.33	2.33	7.33	8.33	1.33	0.33