File: EDX Back Ups and Old Files/EDX Processed Data/High pH BL 60C 6d.txt
Name: High pH BL 60C 6d
Number of Scans: 29
Positions: [-13.0, -12.75, -12.5, -12.25, -12.0, -11.75, -11.5, -11.25, -11.0, -10.75, -10.5, -10.25, -10.0, -9.75, -9.5, -9.25, -9.0, -8.75, -8.5, -8.25, -8.0, -7.75, -7.5, -7.25, -7.0, -6.75, -6.5, -6.25, -6.0]
Points per Scan: 2048
Sample Edge: 3
Scans Off Sample: [0, 1, 2]
Conversion Features: [(275, 17444.3), (309, 19608.3), (913, 57981.7), (934, 59318.24), (1058, 67244.3)]
Degree of Fit: 3
Fit Coeffecients: [ 8.59183e-07 -0.001482  64.3003 -144.207]
pH: High
Steel Fiber: False
Aging Temp.: 60
Aging Atm.: 100% CO2
Aging Humidity: None
Aging Time: 6

*********
#Bins	Energy [keV]	Avg. Background	-12.25	-12.0	-11.75	-11.5	-11.25	-11.0	-10.75	-10.5	-10.25	-10.0	-9.75	-9.5	-9.25	-9.0	-8.75	-8.5	-8.25	-8.0	-7.75	-7.5	-7.25	-7.0	-6.75	-6.5	-6.25	-6.0
30	1.783	21.0	15.0	8.0	-2.0	1.0	1.0	-2.0	-1.0	4.0	2.0	0.0	0.0	1.0	2.0	5.0	1.0	-5.0	-5.0	3.0	6.0	5.0	-4.0	4.0	8.0	-8.0	2.0	-2.0
61	3.773	0.0	1.0	0.0	0.0	0.0	1.0	0.0	1.0	0.0	0.0	0.0	1.0	0.0	0.0	0.0	0.0	0.0	0.0	0.0	2.0	0.0	1.0	1.0	1.0	1.0	0.0	0.0
92	5.76	0.0	0.0	1.0	0.0	2.0	2.0	2.0	0.0	0.0	0.0	0.0	0.0	0.0	1.0	1.0	1.0	0.0	0.0	0.0	3.0	2.0	1.0	0.0	0.0	0.0	0.0	1.0
123	7.744	4.33	-1.33	-1.33	0.67	-4.33	-0.33	-2.33	-2.33	-2.33	2.67	3.67	2.67	-0.33	2.67	1.67	-1.33	-0.33	0.67	-1.33	-1.33	3.67	-1.33	0.67	2.67	0.67	2.67	3.67
154	9.726	13.33	-1.33	-5.33	-3.33	1.67	-3.33	-4.33	-7.33	-3.33	-4.33	-7.33	3.67	0.67	1.67	-0.33	2.67	-2.33	-3.33	-7.33	-3.33	1.67	-1.33	-3.33	0.67	2.67	0.67	1.67
185	11.706	10.67	3.33	-0.67	-1.67	5.33	5.33	-4.67	1.33	1.33	-0.67	-1.67	1.33	1.33	5.33	4.33	1.33	7.33	0.33	-4.67	1.33	5.33	4.33	-5.67	5.33	2.33	-3.67	-2.67
216	13.684	8.67	5.33	-0.67	-0.67	1.33	1.33	4.33	5.33	7.33	3.33	2.33	-0.67	2.33	5.33	3.33	1.33	2.33	-0.67	3.33	8.33	6.33	0.33	-0.67	5.33	5.33	3.33	2.33
247	15.661	11.33	-3.33	-3.33	1.67	0.67	-2.33	-0.33	8.67	-0.33	1.67	-2.33	-0.33	2.67	1.67	8.67	5.67	1.67	2.67	1.67	4.67	-3.33	3.67	-2.33	4.67	4.67	2.67	1.67
278	17.635	9.0	6.0	4.0	4.0	-2.0	3.0	1.0	2.0	8.0	-3.0	11.0	5.0	3.0	2.0	3.0	10.0	2.0	6.0	2.0	3.0	-1.0	4.0	1.0	7.0	2.0	7.0	2.0
309	19.608	9.0	1.0	-1.0	2.0	2.0	3.0	4.0	3.0	7.0	-1.0	0.0	2.0	7.0	3.0	-1.0	3.0	-1.0	3.0	7.0	2.0	2.0	3.0	4.0	4.0	4.0	9.0	5.0
340	21.58	13.0	-2.0	-3.0	-3.0	-6.0	-2.0	-2.0	-2.0	-1.0	0.0	5.0	-8.0	2.0	-6.0	0.0	-3.0	1.0	-7.0	1.0	1.0	0.0	-6.0	-3.0	-5.0	-5.0	1.0	-1.0
371	23.551	8.33	-0.33	-1.33	2.67	5.67	5.67	-1.33	3.67	3.67	3.67	0.67	-0.33	0.67	5.67	-1.33	5.67	-1.33	1.67	4.67	1.67	-0.33	-2.33	-4.33	5.67	3.67	0.67	2.67
402	25.521	10.0	-6.0	3.0	-6.0	-5.0	-5.0	-1.0	-3.0	0.0	1.0	6.0	-4.0	1.0	0.0	1.0	0.0	-2.0	0.0	-4.0	4.0	2.0	4.0	-6.0	-1.0	3.0	-2.0	-1.0
433	27.49	9.0	-1.0	-4.0	0.0	-2.0	3.0	-5.0	-1.0	-2.0	2.0	-3.0	-3.0	0.0	-4.0	-2.0	0.0	-3.0	2.0	-3.0	0.0	0.0	-4.0	-1.0	-3.0	-1.0	4.0	1.0
464	29.458	6.67	3.33	0.33	0.33	-3.67	2.33	-2.67	-2.67	0.33	-1.67	1.33	0.33	-1.67	1.33	1.33	3.33	-0.67	-1.67	-2.67	3.33	0.33	-1.67	2.33	5.33	1.33	-0.67	2.33
495	31.426	5.33	0.67	3.67	-0.33	2.67	2.67	0.67	12.67	-0.33	4.67	4.67	0.67	1.67	1.67	5.67	6.67	5.67	4.67	-1.33	1.67	-1.33	4.67	1.67	-1.33	5.67	2.67	2.67
526	33.393	5.33	0.67	1.67	-4.33	1.67	-0.33	-1.33	0.67	-0.33	2.67	-1.33	5.67	0.67	3.67	3.67	0.67	1.67	0.67	-0.33	4.67	1.67	-0.33	1.67	-2.33	0.67	-2.33	3.67
557	35.36	2.33	3.67	3.67	4.67	2.67	1.67	5.67	3.67	1.67	1.67	2.67	2.67	1.67	1.67	5.67	3.67	1.67	5.67	2.67	4.67	1.67	5.67	5.67	7.67	0.67	3.67	1.67
588	37.327	3.67	1.33	4.33	0.33	4.33	4.33	2.33	1.33	3.33	-1.67	0.33	1.33	2.33	2.33	3.33	-1.67	-0.67	6.33	-1.67	0.33	1.33	1.33	3.33	2.33	1.33	0.33	-1.67
619	39.294	6.0	-1.0	1.0	1.0	-3.0	-1.0	-3.0	0.0	-2.0	3.0	-2.0	2.0	-1.0	-3.0	-2.0	0.0	0.0	2.0	4.0	-2.0	3.0	-2.0	7.0	1.0	2.0	-1.0	-1.0
650	41.261	4.33	1.67	-0.33	3.67	0.67	4.67	0.67	-0.33	-0.33	5.67	-0.33	3.67	4.67	3.67	-0.33	-2.33	1.67	5.67	1.67	4.67	-3.33	-0.33	-2.33	-1.33	0.67	0.67	-3.33
681	43.228	3.67	-1.67	0.33	3.33	6.33	1.33	1.33	0.33	3.33	3.33	0.33	0.33	0.33	0.33	4.33	1.33	-1.67	1.33	4.33	2.33	1.33	1.33	4.33	3.33	0.33	4.33	3.33
712	45.196	6.0	-1.0	6.0	4.0	-2.0	-1.0	0.0	2.0	2.0	0.0	1.0	4.0	1.0	2.0	6.0	6.0	0.0	3.0	0.0	3.0	5.0	2.0	0.0	-1.0	-4.0	4.0	4.0
743	47.165	9.67	-3.67	-2.67	-3.67	7.33	-1.67	-4.67	0.33	4.33	-1.67	-1.67	-4.67	-1.67	-3.67	-3.67	0.33	-1.67	-5.67	-1.67	-0.67	0.33	-3.67	-2.67	-5.67	-4.67	-4.67	-0.67
774	49.135	6.0	1.0	4.0	8.0	2.0	6.0	1.0	6.0	5.0	2.0	2.0	0.0	3.0	5.0	5.0	7.0	3.0	8.0	1.0	1.0	4.0	1.0	5.0	8.0	8.0	3.0	1.0
805	51.105	8.67	-1.67	-0.67	2.33	0.33	-3.67	1.33	5.33	0.33	-2.67	5.33	3.33	10.33	12.33	14.33	31.33	22.33	24.33	29.33	10.33	27.33	16.33	25.33	27.33	9.33	17.33	20.33
836	53.077	8.33	1.67	1.67	4.67	-0.33	8.67	2.67	4.67	2.67	-3.33	1.67	6.67	3.67	2.67	7.67	8.67	7.67	7.67	1.67	5.67	3.67	6.67	8.67	2.67	6.67	6.67	7.67
867	55.05	8.67	4.33	6.33	3.33	2.33	3.33	1.33	-0.67	0.33	4.33	3.33	-1.67	3.33	1.33	4.33	2.33	-1.67	-0.67	7.33	-1.67	5.33	2.33	8.33	-1.67	4.33	6.33	2.33
898	57.025	8.67	-0.67	4.33	-2.67	2.33	8.33	0.33	5.33	3.33	0.33	10.33	2.33	2.33	5.33	8.33	9.33	8.33	6.33	6.33	3.33	2.33	2.33	11.33	7.33	9.33	3.33	1.33
929	59.001	11.33	3.67	1.67	4.67	7.67	8.67	5.67	3.67	8.67	6.67	8.67	7.67	-0.33	7.67	1.67	-2.33	6.67	5.67	0.67	5.67	2.67	3.67	7.67	2.67	-1.33	3.67	0.67
960	60.978	9.33	-5.33	0.67	-2.33	4.67	6.67	17.67	7.67	0.67	3.67	6.67	7.67	1.67	5.67	6.67	-0.33	4.67	2.67	3.67	3.67	2.67	0.67	4.67	0.67	11.67	1.67	2.67
991	62.958	8.67	2.33	8.33	3.33	13.33	4.33	5.33	-1.67	7.33	5.33	7.33	4.33	7.33	6.33	4.33	2.33	2.33	-1.67	2.33	9.33	5.33	3.33	8.33	1.33	4.33	4.33	7.33
1022	64.94	10.0	6.0	20.0	18.0	18.0	18.0	23.0	17.0	19.0	13.0	11.0	22.0	12.0	12.0	12.0	12.0	1.0	2.0	10.0	10.0	8.0	2.0	15.0	13.0	7.0	6.0	17.0
1053	66.924	14.67	-0.67	11.33	2.33	5.33	8.33	5.33	8.33	-1.67	11.33	13.33	12.33	3.33	7.33	16.33	7.33	2.33	4.33	-1.67	6.33	2.33	10.33	8.33	6.33	10.33	5.33	7.33
1084	68.91	11.0	-2.0	1.0	7.0	10.0	1.0	7.0	0.0	-1.0	9.0	-3.0	10.0	7.0	7.0	5.0	5.0	2.0	9.0	7.0	4.0	2.0	10.0	7.0	3.0	7.0	11.0	9.0
1115	70.899	9.0	3.0	3.0	12.0	3.0	5.0	4.0	4.0	10.0	6.0	3.0	3.0	11.0	9.0	10.0	16.0	14.0	10.0	6.0	-1.0	5.0	11.0	8.0	7.0	6.0	4.0	4.0
1146	72.891	24.0	5.0	5.0	0.0	5.0	6.0	2.0	-1.0	2.0	7.0	6.0	1.0	3.0	10.0	3.0	17.0	8.0	8.0	7.0	2.0	-1.0	-4.0	5.0	9.0	9.0	12.0	14.0
1177	74.885	33.33	-6.33	-6.33	0.67	17.67	-2.33	-1.33	-1.33	2.67	1.67	-3.33	2.67	-5.33	3.67	1.67	-0.33	-0.33	-0.33	11.67	8.67	5.67	12.67	-1.33	3.67	-5.33	6.67	5.67
1208	76.883	7.0	5.0	12.0	16.0	13.0	12.0	13.0	18.0	12.0	5.0	12.0	9.0	11.0	8.0	13.0	7.0	7.0	12.0	12.0	13.0	5.0	17.0	9.0	18.0	5.0	16.0	9.0
1239	78.883	13.67	-6.67	9.33	11.33	2.33	9.33	8.33	3.33	5.33	6.33	4.33	7.33	9.33	9.33	7.33	6.33	9.33	3.33	21.33	4.33	2.33	-0.67	7.33	12.33	7.33	1.33	7.33
1270	80.887	13.0	1.0	8.0	15.0	3.0	10.0	4.0	6.0	3.0	7.0	1.0	10.0	8.0	16.0	11.0	15.0	8.0	11.0	20.0	17.0	7.0	3.0	15.0	5.0	8.0	11.0	21.0
1301	82.894	17.33	37.67	134.67	117.67	99.67	100.67	92.67	105.67	100.67	88.67	88.67	70.67	63.67	55.67	60.67	55.67	52.67	48.67	35.67	32.67	63.67	48.67	28.67	47.67	34.67	27.67	45.67
1332	84.905	29.0	29.0	83.0	88.0	83.0	64.0	64.0	73.0	61.0	46.0	54.0	75.0	42.0	47.0	48.0	23.0	46.0	29.0	36.0	29.0	25.0	48.0	39.0	27.0	38.0	40.0	34.0
1363	86.92	19.33	10.67	5.67	4.67	12.67	5.67	17.67	17.67	7.67	3.67	13.67	2.67	14.67	13.67	10.67	11.67	7.67	2.67	15.67	17.67	0.67	9.67	3.67	2.67	12.67	14.67	10.67
1394	88.938	21.0	-2.0	-1.0	9.0	-1.0	10.0	14.0	3.0	18.0	8.0	9.0	6.0	10.0	6.0	6.0	-7.0	9.0	4.0	2.0	4.0	8.0	4.0	4.0	7.0	16.0	-3.0	-4.0
1425	90.961	23.67	-1.67	2.33	10.33	14.33	18.33	11.33	-2.67	-4.67	12.33	8.33	4.33	11.33	13.33	10.33	9.33	3.33	2.33	15.33	19.33	5.33	9.33	-0.67	6.33	11.33	11.33	-0.67
1456	92.987	18.33	4.67	15.67	17.67	11.67	11.67	21.67	2.67	12.67	2.67	13.67	8.67	15.67	16.67	20.67	12.67	16.67	17.67	15.67	18.67	6.67	13.67	15.67	17.67	16.67	14.67	20.67
1487	95.018	30.67	-10.67	3.33	12.33	10.33	4.33	-1.67	-2.67	-2.67	6.33	0.33	7.33	-0.67	-5.67	-2.67	2.33	2.33	-4.67	9.33	-0.67	7.33	9.33	5.33	-6.67	-3.67	2.33	8.33
1518	97.054	30.33	1.67	2.67	8.67	1.67	-1.33	1.67	12.67	-0.33	-0.33	4.67	2.67	9.67	21.67	12.67	31.67	12.67	34.67	24.67	36.67	24.67	23.67	13.67	31.67	21.67	29.67	18.67
1549	99.094	25.0	10.0	15.0	12.0	9.0	9.0	18.0	11.0	18.0	7.0	3.0	3.0	16.0	21.0	10.0	5.0	-1.0	6.0	9.0	9.0	-4.0	7.0	8.0	9.0	12.0	15.0	12.0
1580	101.14	30.33	-2.33	7.67	3.67	8.67	13.67	2.67	1.67	1.67	11.67	3.67	4.67	1.67	7.67	-4.33	-0.33	0.67	6.67	-0.33	2.67	5.67	10.67	-0.33	2.67	-5.33	11.67	5.67
1611	103.19	27.33	-8.33	8.67	21.67	13.67	15.67	6.67	4.67	8.67	-1.33	7.67	6.67	2.67	9.67	3.67	3.67	6.67	4.67	14.67	14.67	11.67	17.67	20.67	7.67	3.67	-0.33	12.67
1642	105.245	22.33	-0.33	1.67	13.67	8.67	1.67	11.67	14.67	9.67	3.67	6.67	8.67	10.67	4.67	4.67	12.67	9.67	8.67	10.67	-1.33	3.67	4.67	5.67	6.67	7.67	8.67	7.67
1673	107.305	24.67	-1.67	-1.67	3.33	-4.67	-5.67	-0.67	3.33	1.33	8.33	6.33	4.33	1.33	6.33	2.33	16.33	-0.67	5.33	3.33	-1.67	4.33	2.33	6.33	1.33	2.33	-1.67	1.33
1704	109.371	19.33	1.67	4.67	0.67	4.67	9.67	6.67	-2.33	14.67	7.67	0.67	7.67	10.67	2.67	13.67	14.67	4.67	8.67	2.67	1.67	4.67	3.67	2.67	4.67	0.67	7.67	3.67
1735	111.443	18.0	-3.0	5.0	15.0	10.0	3.0	8.0	11.0	13.0	3.0	7.0	30.0	8.0	16.0	7.0	6.0	10.0	18.0	10.0	21.0	8.0	5.0	8.0	0.0	7.0	8.0	10.0
1766	113.52	23.0	-2.0	-4.0	-6.0	-1.0	1.0	1.0	-10.0	-5.0	4.0	0.0	1.0	0.0	3.0	-4.0	-6.0	-4.0	-9.0	2.0	1.0	0.0	7.0	2.0	2.0	2.0	-6.0	-3.0
1797	115.604	16.0	2.0	-1.0	-3.0	2.0	2.0	-3.0	11.0	5.0	1.0	-4.0	-3.0	3.0	5.0	6.0	-2.0	3.0	2.0	-6.0	8.0	-6.0	3.0	0.0	4.0	4.0	2.0	-2.0
1828	117.693	15.0	1.0	-5.0	0.0	10.0	6.0	5.0	5.0	1.0	-2.0	5.0	-5.0	4.0	3.0	5.0	0.0	3.0	0.0	2.0	-6.0	7.0	-3.0	-1.0	0.0	3.0	2.0	1.0
1859	119.788	13.67	-5.67	-0.67	-3.67	-5.67	1.33	-1.67	4.33	-6.67	-2.67	4.33	2.33	-4.67	1.33	0.33	3.33	0.33	0.33	0.33	15.33	0.33	0.33	6.33	-6.67	0.33	-0.67	2.33
1890	121.89	13.0	-3.0	-3.0	1.0	9.0	4.0	6.0	6.0	5.0	5.0	-2.0	2.0	-2.0	3.0	4.0	0.0	-3.0	2.0	-1.0	2.0	0.0	-6.0	0.0	3.0	0.0	2.0	3.0
1921	123.999	12.0	7.0	3.0	3.0	0.0	0.0	-4.0	1.0	1.0	-3.0	1.0	-1.0	3.0	4.0	8.0	3.0	2.0	4.0	-3.0	-5.0	5.0	1.0	5.0	-6.0	-2.0	2.0	-2.0
1952	126.114	12.67	-8.67	-0.67	-8.67	3.33	3.33	-4.67	-1.67	-4.67	-0.67	-2.67	-3.67	0.33	-2.67	-1.67	0.33	-2.67	0.33	0.33	1.33	-2.67	-2.67	-1.67	1.33	1.33	1.33	-0.67
1983	128.235	7.0	4.0	5.0	1.0	3.0	2.0	2.0	-1.0	5.0	6.0	-1.0	7.0	-1.0	5.0	5.0	8.0	0.0	4.0	3.0	4.0	4.0	2.0	6.0	1.0	2.0	7.0	6.0
2014	130.364	10.0	-6.0	4.0	-3.0	-4.0	-4.0	3.0	0.0	-3.0	-3.0	-1.0	6.0	-1.0	-1.0	-1.0	5.0	0.0	-2.0	-5.0	-6.0	-3.0	-4.0	-2.0	1.0	-5.0	3.0	1.0
2045	132.5	6.33	0.67	4.67	12.67	-2.33	3.67	1.67	1.67	2.67	4.67	1.67	0.67	1.67	6.67	-0.33	4.67	2.67	2.67	7.67	1.67	1.67	6.67	3.67	-0.33	4.67	0.67	1.67
2047	132.638	11.67	-6.67	-7.67	-2.67	-3.67	-2.67	-2.67	1.33	-4.67	-1.67	-1.67	-3.67	-4.67	-3.67	-5.67	-0.67	-5.67	-8.67	-4.67	-4.67	-4.67	-3.67	-5.67	0.33	0.33	-6.67	-1.67