File: EDX Back Ups and Old Files/EDX Processed Data/High pH SF Ref.txt
Name: High pH SF Ref
Number of Scans: 29
Positions: [-13.0, -12.75, -12.5, -12.25, -12.0, -11.75, -11.5, -11.25, -11.0, -10.75, -10.5, -10.25, -10.0, -9.75, -9.5, -9.25, -9.0, -8.75, -8.5, -8.25, -8.0, -7.75, -7.5, -7.25, -7.0, -6.75, -6.5, -6.25, -6.0]
Points per Scan: 2048
Sample Edge: 3
Scans Off Sample: [0, 1, 2]
Conversion Features: [(275, 17444.3), (309, 19608.3), (913, 57981.7), (934, 59318.24), (1058, 67244.3)]
Degree of Fit: 3
Fit Coeffecients: [ 8.59183e-07 -0.001482  64.3003 -144.207]
pH: High
Steel Fiber: True
Aging Temp.: 25
Aging Atm.: 100% CO2
Aging Humidity: None
Aging Time: 0

*********
#Bins	Energy [keV]	Avg. Background	-12.25	-12.0	-11.75	-11.5	-11.25	-11.0	-10.75	-10.5	-10.25	-10.0	-9.75	-9.5	-9.25	-9.0	-8.75	-8.5	-8.25	-8.0	-7.75	-7.5	-7.25	-7.0	-6.75	-6.5	-6.25	-6.0
30	1.783	28.67	-6.67	-12.67	-13.67	-5.67	0.33	-17.67	-3.67	-2.67	-9.67	-4.67	-10.67	-7.67	-8.67	-4.67	-3.67	-7.67	-0.67	-11.67	-3.67	-14.67	-11.67	-12.67	-4.67	-2.67	-8.67	-12.67
61	3.773	0.33	-0.33	-0.33	0.67	1.67	0.67	-0.33	-0.33	-0.33	-0.33	-0.33	-0.33	0.67	-0.33	0.67	2.67	-0.33	-0.33	-0.33	-0.33	0.67	-0.33	-0.33	-0.33	-0.33	-0.33	2.67
92	5.76	0.33	0.67	-0.33	-0.33	0.67	-0.33	-0.33	0.67	1.67	-0.33	0.67	0.67	0.67	0.67	-0.33	-0.33	0.67	-0.33	0.67	-0.33	0.67	0.67	-0.33	0.67	1.67	0.67	-0.33
123	7.744	3.33	2.67	1.67	1.67	2.67	6.67	2.67	0.67	1.67	0.67	0.67	3.67	2.67	1.67	-0.33	-1.33	2.67	2.67	-0.33	-2.33	-1.33	0.67	3.67	4.67	2.67	-0.33	1.67
154	9.726	10.33	-1.33	3.67	-0.33	-0.33	1.67	-2.33	8.67	5.67	3.67	-2.33	-3.33	-1.33	-0.33	-3.33	-2.33	-0.33	5.67	-0.33	3.67	2.67	-0.33	0.67	3.67	-3.33	-1.33	-3.33
185	11.706	8.33	1.67	1.67	1.67	-3.33	4.67	6.67	-1.33	2.67	1.67	4.67	6.67	5.67	3.67	2.67	0.67	1.67	4.67	-1.33	7.67	3.67	2.67	15.67	4.67	5.67	4.67	7.67
216	13.684	11.33	-4.33	0.67	-1.33	1.67	-3.33	-2.33	-0.33	6.67	1.67	-0.33	1.67	3.67	5.67	4.67	0.67	0.67	4.67	-1.33	6.67	2.67	2.67	4.67	0.67	1.67	2.67	4.67
247	15.661	9.33	2.67	-1.33	-1.33	-2.33	-1.33	7.67	2.67	3.67	3.67	5.67	8.67	-0.33	-0.33	1.67	10.67	1.67	6.67	9.67	6.67	-0.33	4.67	3.67	1.67	-2.33	1.67	2.67
278	17.635	10.33	3.67	0.67	1.67	3.67	-4.33	3.67	-0.33	1.67	1.67	1.67	1.67	1.67	6.67	-0.33	0.67	1.67	3.67	2.67	2.67	4.67	7.67	-1.33	1.67	2.67	-3.33	2.67
309	19.608	10.0	-2.0	-2.0	3.0	5.0	0.0	4.0	-3.0	3.0	0.0	6.0	0.0	-2.0	-4.0	-3.0	4.0	-6.0	8.0	-3.0	1.0	-2.0	-1.0	5.0	-2.0	8.0	4.0	9.0
340	21.58	6.33	2.67	3.67	0.67	8.67	1.67	1.67	1.67	3.67	9.67	1.67	11.67	4.67	10.67	9.67	-0.33	3.67	-2.33	8.67	3.67	4.67	3.67	2.67	9.67	7.67	3.67	14.67
371	23.551	7.0	0.0	0.0	4.0	2.0	3.0	9.0	7.0	3.0	1.0	1.0	-1.0	2.0	2.0	-1.0	0.0	6.0	-1.0	8.0	11.0	5.0	8.0	3.0	1.0	7.0	3.0	9.0
402	25.521	8.33	0.67	1.67	-1.33	2.67	1.67	-3.33	0.67	0.67	2.67	-0.33	-1.33	-6.33	-2.33	-1.33	4.67	0.67	-0.33	-1.33	-0.33	-3.33	1.67	-0.33	6.67	-2.33	-1.33	5.67
433	27.49	6.33	-1.33	-0.33	1.67	-2.33	-2.33	-0.33	2.67	5.67	2.67	0.67	3.67	0.67	1.67	0.67	-0.33	3.67	2.67	4.67	3.67	6.67	0.67	0.67	1.67	2.67	0.67	2.67
464	29.458	9.33	-0.33	-2.33	-5.33	-6.33	-8.33	-6.33	-4.33	-6.33	-3.33	0.67	-1.33	-1.33	-3.33	-6.33	-2.33	-5.33	-0.33	-6.33	-4.33	-3.33	-5.33	-6.33	-6.33	-0.33	-6.33	-1.33
495	31.426	4.33	-1.33	0.67	2.67	1.67	5.67	1.67	-0.33	0.67	0.67	-0.33	3.67	3.67	0.67	1.67	0.67	1.67	1.67	1.67	2.67	-2.33	6.67	-1.33	1.67	2.67	3.67	2.67
526	33.393	9.0	-2.0	-3.0	-3.0	-2.0	-3.0	-2.0	-1.0	-5.0	-1.0	-1.0	-7.0	-2.0	0.0	-5.0	-6.0	-3.0	-2.0	-6.0	-1.0	-6.0	-4.0	-6.0	-3.0	-8.0	-2.0	1.0
557	35.36	5.67	2.33	-0.67	-2.67	5.33	-1.67	1.33	3.33	-0.67	1.33	-2.67	-3.67	-0.67	0.33	0.33	-1.67	-2.67	-2.67	0.33	-1.67	2.33	5.33	2.33	-1.67	-0.67	-4.67	5.33
588	37.327	10.33	-7.33	-5.33	-5.33	-3.33	-6.33	-3.33	-7.33	-5.33	-4.33	-1.33	-6.33	-3.33	-3.33	-1.33	-6.33	-7.33	-4.33	-0.33	-2.33	-4.33	-3.33	-7.33	-2.33	-4.33	-3.33	-3.33
619	39.294	7.67	-3.67	-3.67	-2.67	-0.67	-0.67	-3.67	0.33	-0.67	-1.67	-4.67	-2.67	0.33	-2.67	-3.67	-3.67	-3.67	-3.67	2.33	-2.67	-2.67	-1.67	-1.67	-1.67	-2.67	-1.67	-3.67
650	41.261	7.67	-1.67	-1.67	-2.67	-5.67	-0.67	-5.67	-0.67	-0.67	1.33	-0.67	-1.67	-3.67	-4.67	-3.67	0.33	-0.67	-0.67	1.33	-3.67	-2.67	-4.67	-1.67	3.33	0.33	1.33	-3.67
681	43.228	8.0	-1.0	-1.0	-3.0	-5.0	0.0	-4.0	-3.0	-1.0	-3.0	-3.0	-3.0	2.0	-2.0	1.0	-2.0	0.0	-3.0	0.0	-7.0	-2.0	3.0	-1.0	3.0	-4.0	5.0	-1.0
712	45.196	10.33	-2.33	-3.33	0.67	-3.33	-3.33	-2.33	-0.33	-0.33	-1.33	-2.33	0.67	1.67	-3.33	-7.33	-3.33	2.67	2.67	-3.33	-2.33	-2.33	-5.33	-3.33	-2.33	-2.33	-4.33	-3.33
743	47.165	7.0	1.0	2.0	2.0	-1.0	-2.0	-1.0	-2.0	0.0	-3.0	3.0	1.0	-1.0	-4.0	0.0	0.0	-2.0	-3.0	2.0	-2.0	-2.0	-1.0	0.0	6.0	0.0	4.0	2.0
774	49.135	11.33	0.67	-1.33	-1.33	-0.33	-4.33	-2.33	3.67	-6.33	3.67	-3.33	-4.33	-5.33	-3.33	-1.33	-1.33	-6.33	-1.33	-3.33	-4.33	0.67	-1.33	-4.33	-1.33	1.67	-0.33	-2.33
805	51.105	16.67	10.33	28.33	25.33	18.33	25.33	12.33	24.33	24.33	10.33	12.33	25.33	11.33	14.33	12.33	9.33	7.33	1.33	11.33	5.33	9.33	11.33	11.33	13.33	8.33	14.33	-0.67
836	53.077	15.33	-3.33	-0.33	2.67	2.67	-1.33	0.67	5.67	2.67	-2.33	2.67	-2.33	-3.33	1.67	1.67	-6.33	3.67	-1.33	-0.33	-5.33	2.67	-0.33	-4.33	1.67	-0.33	-7.33	-1.33
867	55.05	13.67	-1.67	-2.67	8.33	0.33	4.33	5.33	-3.67	-5.67	3.33	4.33	-3.67	1.33	2.33	-2.67	-6.67	0.33	-6.67	-4.67	-1.67	-2.67	-1.67	-1.67	-1.67	-0.67	-2.67	-5.67
898	57.025	14.33	-0.33	3.67	6.67	1.67	-2.33	2.67	1.67	-0.33	-3.33	-1.33	5.67	-6.33	-2.33	2.67	0.67	2.67	4.67	2.67	1.67	0.67	5.67	-0.33	-5.33	4.67	0.67	-2.33
929	59.001	16.67	4.33	4.33	-3.67	1.33	-0.67	-0.67	-6.67	7.33	3.33	-1.67	4.33	-2.67	-4.67	4.33	-4.67	-1.67	-0.67	5.33	-5.67	-0.67	3.33	-4.67	3.33	-0.67	-3.67	3.33
960	60.978	19.0	3.0	-6.0	-3.0	1.0	-6.0	-9.0	-6.0	-10.0	-2.0	-7.0	-1.0	2.0	-2.0	-6.0	-7.0	-1.0	-8.0	-9.0	-4.0	-9.0	3.0	-10.0	3.0	-4.0	-7.0	-1.0
991	62.958	13.67	11.33	10.33	15.33	7.33	0.33	1.33	-1.67	3.33	3.33	1.33	0.33	0.33	-4.67	3.33	1.33	2.33	7.33	5.33	8.33	7.33	4.33	-0.67	4.33	6.33	1.33	-2.67
1022	64.94	15.33	6.67	14.67	4.67	7.67	8.67	14.67	9.67	5.67	12.67	9.67	11.67	11.67	2.67	8.67	-1.33	6.67	10.67	9.67	2.67	11.67	2.67	5.67	10.67	4.67	3.67	4.67
1053	66.924	16.0	4.0	2.0	6.0	8.0	-2.0	5.0	4.0	7.0	6.0	7.0	6.0	0.0	7.0	12.0	4.0	9.0	3.0	5.0	15.0	0.0	6.0	5.0	7.0	7.0	4.0	12.0
1084	68.91	21.0	1.0	5.0	0.0	1.0	-2.0	-5.0	2.0	0.0	4.0	-3.0	-6.0	5.0	0.0	-4.0	-5.0	-5.0	-3.0	1.0	-2.0	6.0	5.0	5.0	-6.0	2.0	5.0	4.0
1115	70.899	12.33	-0.33	7.67	6.67	18.67	9.67	2.67	8.67	6.67	4.67	8.67	18.67	14.67	4.67	6.67	0.67	7.67	6.67	5.67	2.67	13.67	0.67	6.67	-2.33	7.67	5.67	3.67
1146	72.891	28.67	7.33	13.33	6.33	-0.67	11.33	2.33	13.33	-3.67	13.33	12.33	6.33	14.33	4.33	13.33	3.33	-2.67	-3.67	5.33	20.33	7.33	13.33	3.33	10.33	-3.67	2.33	7.33
1177	74.885	32.67	3.33	-0.67	5.33	0.33	3.33	-10.67	9.33	14.33	7.33	13.33	11.33	5.33	6.33	1.33	9.33	3.33	2.33	4.33	8.33	-6.67	0.33	0.33	15.33	6.33	2.33	9.33
1208	76.883	14.33	4.67	6.67	11.67	9.67	5.67	1.67	16.67	4.67	7.67	4.67	10.67	-0.33	3.67	9.67	3.67	10.67	5.67	17.67	9.67	3.67	5.67	12.67	10.67	4.67	6.67	7.67
1239	78.883	11.67	-3.67	9.33	22.33	11.33	14.33	11.33	13.33	13.33	14.33	15.33	5.33	18.33	16.33	12.33	9.33	19.33	16.33	7.33	10.33	17.33	5.33	7.33	11.33	10.33	13.33	5.33
1270	80.887	15.67	3.33	6.33	10.33	5.33	10.33	13.33	15.33	9.33	16.33	7.33	7.33	15.33	2.33	21.33	10.33	23.33	7.33	4.33	11.33	22.33	15.33	15.33	6.33	12.33	10.33	6.33
1301	82.894	14.67	73.33	87.33	64.33	56.33	43.33	72.33	64.33	60.33	41.33	52.33	57.33	40.33	45.33	43.33	51.33	38.33	37.33	40.33	47.33	51.33	39.33	56.33	34.33	47.33	36.33	32.33
1332	84.905	32.33	33.67	44.67	57.67	47.67	47.67	38.67	35.67	23.67	45.67	33.67	27.67	23.67	43.67	35.67	28.67	33.67	29.67	17.67	20.67	29.67	21.67	27.67	28.67	29.67	7.67	28.67
1363	86.92	26.33	-3.33	8.67	8.67	-2.33	6.67	4.67	2.67	-7.33	8.67	0.67	10.67	0.67	0.67	6.67	-5.33	1.67	-2.33	4.67	8.67	5.67	-4.33	13.67	2.67	12.67	7.67	2.67
1394	88.938	17.0	7.0	12.0	12.0	24.0	11.0	22.0	15.0	16.0	27.0	10.0	12.0	14.0	11.0	15.0	14.0	19.0	13.0	15.0	8.0	17.0	23.0	12.0	11.0	15.0	18.0	10.0
1425	90.961	21.67	7.33	22.33	7.33	14.33	17.33	12.33	10.33	11.33	12.33	6.33	12.33	15.33	16.33	16.33	13.33	14.33	6.33	18.33	10.33	6.33	14.33	1.33	8.33	13.33	13.33	14.33
1456	92.987	27.33	3.67	3.67	15.67	6.67	8.67	6.67	6.67	6.67	4.67	13.67	4.67	10.67	5.67	4.67	-4.33	17.67	14.67	13.67	8.67	0.67	1.67	3.67	1.67	4.67	11.67	8.67
1487	95.018	31.33	0.67	9.67	6.67	15.67	8.67	2.67	0.67	-5.33	1.67	5.67	9.67	9.67	-6.33	0.67	6.67	-1.33	9.67	4.67	4.67	3.67	0.67	8.67	1.67	4.67	4.67	4.67
1518	97.054	26.67	14.33	35.33	32.33	43.33	31.33	49.33	36.33	38.33	29.33	39.33	29.33	33.33	34.33	36.33	41.33	20.33	39.33	21.33	37.33	40.33	25.33	24.33	23.33	41.33	20.33	35.33
1549	99.094	30.33	7.67	3.67	5.67	-4.33	6.67	17.67	10.67	5.67	17.67	5.67	27.67	6.67	9.67	7.67	-1.33	0.67	7.67	1.67	7.67	1.67	16.67	9.67	-2.33	2.67	9.67	11.67
1580	101.14	24.0	4.0	3.0	6.0	15.0	14.0	5.0	13.0	8.0	-2.0	9.0	13.0	11.0	19.0	3.0	7.0	5.0	11.0	8.0	4.0	22.0	9.0	15.0	15.0	6.0	17.0	15.0
1611	103.19	25.33	12.67	-0.33	11.67	12.67	1.67	15.67	9.67	-0.33	12.67	15.67	4.67	3.67	11.67	12.67	13.67	12.67	11.67	14.67	2.67	6.67	11.67	20.67	5.67	12.67	7.67	10.67
1642	105.245	24.67	1.33	-2.67	3.33	5.33	1.33	-10.67	2.33	9.33	2.33	-1.67	6.33	1.33	3.33	-2.67	0.33	5.33	12.33	13.33	2.33	0.33	5.33	-0.67	24.33	4.33	10.33	3.33
1673	107.305	28.33	10.67	-3.33	-4.33	-5.33	0.67	-2.33	-7.33	-2.33	-9.33	0.67	0.67	0.67	10.67	-3.33	-7.33	3.67	-1.33	-2.33	4.67	-2.33	-11.33	2.67	-4.33	-4.33	-3.33	7.67
1704	109.371	18.67	-3.67	1.33	7.33	12.33	10.33	0.33	1.33	4.33	0.33	3.33	2.33	7.33	10.33	2.33	1.33	5.33	5.33	6.33	7.33	0.33	-4.67	7.33	-0.67	14.33	6.33	10.33
1735	111.443	16.33	8.67	13.67	10.67	9.67	2.67	12.67	-0.33	1.67	9.67	7.67	10.67	10.67	-0.33	10.67	9.67	1.67	9.67	9.67	11.67	11.67	7.67	6.67	9.67	4.67	5.67	16.67
1766	113.52	18.67	-3.67	3.33	3.33	1.33	-5.67	4.33	3.33	0.33	-5.67	6.33	3.33	-6.67	-3.67	-7.67	4.33	1.33	3.33	4.33	10.33	10.33	3.33	2.33	2.33	5.33	8.33	10.33
1797	115.604	15.0	-1.0	9.0	9.0	1.0	3.0	9.0	-1.0	0.0	-2.0	7.0	8.0	2.0	13.0	4.0	5.0	-3.0	3.0	1.0	-1.0	7.0	0.0	1.0	15.0	5.0	7.0	9.0
1828	117.693	11.33	1.67	-0.33	3.67	3.67	0.67	5.67	5.67	5.67	2.67	6.67	8.67	10.67	6.67	4.67	10.67	5.67	5.67	8.67	9.67	5.67	4.67	12.67	1.67	5.67	12.67	9.67
1859	119.788	16.33	-1.33	-6.33	-2.33	-5.33	-4.33	-5.33	5.67	3.67	-3.33	-3.33	-0.33	-6.33	0.67	3.67	-1.33	-1.33	1.67	3.67	-0.33	-2.33	1.67	0.67	-8.33	-9.33	-2.33	-9.33
1890	121.89	9.33	-0.33	3.67	11.67	6.67	4.67	9.67	3.67	7.67	10.67	7.67	-0.33	9.67	8.67	8.67	5.67	-2.33	13.67	6.67	10.67	6.67	5.67	2.67	9.67	1.67	3.67	0.67
1921	123.999	9.0	2.0	2.0	8.0	7.0	1.0	7.0	1.0	3.0	4.0	7.0	8.0	12.0	6.0	3.0	10.0	2.0	1.0	1.0	0.0	1.0	6.0	10.0	2.0	11.0	10.0	-1.0
1952	126.114	9.67	6.33	-1.67	-5.67	4.33	-1.67	1.33	2.33	3.33	5.33	-0.67	0.33	-1.67	0.33	3.33	0.33	9.33	1.33	7.33	4.33	0.33	4.33	-0.67	4.33	-0.67	1.33	-1.67
1983	128.235	10.33	-1.33	-1.33	2.67	1.67	0.67	-3.33	2.67	-3.33	4.67	6.67	-0.33	-5.33	-1.33	-4.33	-0.33	0.67	5.67	0.67	-0.33	-4.33	-1.33	-3.33	8.67	2.67	0.67	1.67
2014	130.364	8.67	-1.67	0.33	0.33	-0.67	-0.67	-2.67	-5.67	-4.67	5.33	-2.67	0.33	-2.67	3.33	-0.67	2.33	1.33	1.33	3.33	-4.67	-2.67	3.33	2.33	4.33	-3.67	-5.67	8.33
2045	132.5	11.0	-5.0	-4.0	2.0	-1.0	-3.0	-5.0	-2.0	-10.0	-4.0	-2.0	-2.0	-2.0	2.0	-6.0	-1.0	-9.0	-3.0	-5.0	-7.0	2.0	-4.0	-5.0	3.0	3.0	-2.0	-4.0
2047	132.638	10.33	-1.33	0.67	-5.33	-0.33	1.67	-8.33	0.67	-3.33	1.67	-3.33	2.67	-3.33	-4.33	-2.33	-5.33	-1.33	-0.33	0.67	-0.33	-0.33	-3.33	1.67	-1.33	0.67	-2.33	-0.33