File: EDX Back Ups and Old Files/EDX Processed Data/High pH SF 60C 6d.txt
Name: High pH SF 60C 6d
Number of Scans: 29
Positions: [-13.0, -12.75, -12.5, -12.25, -12.0, -11.75, -11.5, -11.25, -11.0, -10.75, -10.5, -10.25, -10.0, -9.75, -9.5, -9.25, -9.0, -8.75, -8.5, -8.25, -8.0, -7.75, -7.5, -7.25, -7.0, -6.75, -6.5, -6.25, -6.0]
Points per Scan: 2048
Sample Edge: 3
Scans Off Sample: [0, 1, 2]
Conversion Features: [(275, 17444.3), (309, 19608.3), (913, 57981.7), (934, 59318.24), (1058, 67244.3)]
Degree of Fit: 3
Fit Coeffecients: [ 8.59183e-07 -0.001482  64.3003 -144.207]
pH: High
Steel Fiber: True
Aging Temp.: 60
Aging Atm.: 100% CO2
Aging Humidity: None
Aging Time: 6

*********
#Bins	Energy [keV]	Avg. Background	-12.25	-12.0	-11.75	-11.5	-11.25	-11.0	-10.75	-10.5	-10.25	-10.0	-9.75	-9.5	-9.25	-9.0	-8.75	-8.5	-8.25	-8.0	-7.75	-7.5	-7.25	-7.0	-6.75	-6.5	-6.25	-6.0
31	1.848	14.33	1.67	-2.33	3.67	-1.33	0.67	-0.33	1.67	1.67	5.67	4.67	-2.33	0.67	3.67	4.67	5.67	1.67	0.67	-1.33	-0.33	8.67	11.67	-4.33	11.67	7.67	4.67	-0.33
63	3.901	0.33	-0.33	-0.33	0.67	-0.33	0.67	1.67	-0.33	-0.33	-0.33	-0.33	-0.33	-0.33	0.67	-0.33	-0.33	-0.33	-0.33	-0.33	-0.33	0.67	-0.33	-0.33	-0.33	-0.33	-0.33	-0.33
95	5.952	0.67	0.33	-0.67	-0.67	0.33	1.33	1.33	-0.67	-0.67	-0.67	-0.67	0.33	-0.67	1.33	0.33	1.33	0.33	2.33	-0.67	-0.67	-0.67	0.33	-0.67	1.33	0.33	3.33	-0.67
127	8.0	4.0	0.0	2.0	2.0	1.0	6.0	1.0	3.0	0.0	2.0	0.0	6.0	1.0	2.0	2.0	3.0	1.0	3.0	3.0	2.0	4.0	4.0	-3.0	2.0	3.0	0.0	2.0
159	10.046	11.0	-1.0	-3.0	3.0	1.0	4.0	-1.0	0.0	0.0	-7.0	1.0	2.0	3.0	4.0	6.0	4.0	3.0	3.0	4.0	3.0	3.0	-3.0	5.0	6.0	4.0	-2.0	10.0
191	12.089	7.33	3.67	0.67	2.67	-2.33	2.67	-0.33	7.67	6.67	3.67	-2.33	0.67	8.67	6.67	7.67	10.67	8.67	1.67	1.67	3.67	2.67	0.67	7.67	8.67	5.67	-0.33	6.67
223	14.131	11.33	-1.33	-2.33	5.67	2.67	-2.33	-0.33	5.67	-3.33	0.67	-1.33	2.67	0.67	-6.33	-1.33	5.67	1.67	-0.33	-4.33	-1.33	0.67	6.67	3.67	0.67	3.67	7.67	0.67
255	16.17	11.0	-5.0	4.0	2.0	-1.0	-1.0	-3.0	-4.0	3.0	7.0	6.0	4.0	0.0	-2.0	4.0	0.0	0.0	3.0	-1.0	-3.0	-1.0	8.0	5.0	-5.0	1.0	-1.0	-2.0
287	18.208	7.33	2.67	2.67	10.67	4.67	1.67	2.67	5.67	3.67	1.67	3.67	1.67	2.67	-0.33	1.67	7.67	3.67	6.67	14.67	-2.33	0.67	1.67	5.67	3.67	0.67	4.67	3.67
319	20.245	9.67	3.33	0.33	3.33	-3.67	3.33	5.33	-0.67	4.33	3.33	4.33	3.33	7.33	6.33	-0.67	0.33	0.33	5.33	0.33	6.33	4.33	2.33	4.33	-1.67	3.33	-2.67	4.33
351	22.28	7.33	-2.33	1.67	1.67	9.67	4.67	1.67	-1.33	4.67	2.67	2.67	6.67	-1.33	5.67	4.67	-0.33	0.67	2.67	1.67	0.67	2.67	8.67	3.67	6.67	2.67	3.67	7.67
383	24.314	7.67	5.33	0.33	3.33	0.33	-2.67	0.33	2.33	3.33	0.33	-0.67	2.33	5.33	1.33	0.33	0.33	4.33	0.33	5.33	5.33	3.33	5.33	5.33	-0.67	3.33	1.33	1.33
415	26.347	6.33	2.67	-2.33	1.67	0.67	-0.33	2.67	1.67	3.67	3.67	1.67	6.67	2.67	8.67	4.67	-2.33	3.67	-1.33	-1.33	2.67	2.67	3.67	4.67	-1.33	7.67	3.67	0.67
447	28.379	6.0	3.0	0.0	1.0	1.0	4.0	2.0	5.0	-1.0	-5.0	1.0	5.0	3.0	1.0	-2.0	-4.0	-1.0	1.0	1.0	3.0	-2.0	1.0	6.0	4.0	6.0	5.0	1.0
479	30.41	7.33	-3.33	-1.33	-1.33	0.67	3.67	-1.33	-5.33	-2.33	-0.33	-2.33	-4.33	-0.33	2.67	-3.33	2.67	3.67	-1.33	-3.33	-4.33	0.67	-3.33	3.67	0.67	-2.33	1.67	0.67
511	32.441	4.33	7.67	-2.33	-1.33	1.67	4.67	3.67	-0.33	1.67	-0.33	5.67	3.67	-0.33	6.67	1.67	-2.33	-0.33	2.67	4.67	-0.33	5.67	-0.33	2.67	3.67	4.67	0.67	-1.33
543	34.471	3.67	1.33	2.33	0.33	0.33	0.33	3.33	0.33	5.33	1.33	2.33	2.33	1.33	1.33	6.33	-0.67	4.33	2.33	2.33	1.33	1.33	6.33	1.33	1.33	5.33	0.33	4.33
575	36.502	7.33	-1.33	-2.33	-3.33	-3.33	-0.33	0.67	3.67	-2.33	-3.33	-6.33	-3.33	1.67	-3.33	-6.33	0.67	-5.33	-4.33	-1.33	-1.33	-0.33	1.67	-6.33	2.67	-4.33	-1.33	-2.33
607	38.532	3.0	2.0	3.0	0.0	1.0	2.0	9.0	4.0	1.0	1.0	2.0	4.0	2.0	3.0	2.0	1.0	5.0	3.0	4.0	-2.0	4.0	5.0	0.0	4.0	6.0	5.0	4.0
639	40.563	7.67	-0.67	-3.67	-0.67	1.33	-6.67	-2.67	-3.67	-1.67	-4.67	-1.67	-1.67	0.33	-1.67	-0.67	-3.67	-3.67	-0.67	-4.67	-2.67	2.33	-3.67	0.33	-5.67	-4.67	-2.67	-5.67
671	42.594	8.0	-3.0	-3.0	-3.0	-3.0	-3.0	0.0	-3.0	-4.0	-5.0	-4.0	0.0	-4.0	-2.0	-1.0	-3.0	-3.0	1.0	0.0	2.0	0.0	-2.0	-5.0	-4.0	-4.0	-2.0	2.0
703	44.625	9.0	1.0	-1.0	-5.0	-4.0	0.0	-3.0	0.0	-2.0	-3.0	4.0	-2.0	4.0	-5.0	-5.0	-1.0	-5.0	-3.0	-1.0	-1.0	-6.0	1.0	-3.0	-2.0	-3.0	-4.0	-3.0
735	46.657	10.0	-1.0	1.0	-5.0	-5.0	-4.0	-4.0	-2.0	-4.0	-2.0	-9.0	-7.0	-1.0	-3.0	-6.0	0.0	-3.0	1.0	-3.0	2.0	-2.0	-4.0	-2.0	-3.0	-5.0	-2.0	-2.0
767	48.69	10.67	4.33	0.33	-3.67	-2.67	-4.67	-3.67	4.33	0.33	-3.67	-3.67	2.33	0.33	-1.67	-1.67	0.33	-0.67	-4.67	-3.67	-7.67	5.33	-4.67	1.33	-2.67	-4.67	-3.67	3.33
799	50.724	9.33	-1.33	-0.33	-0.33	0.67	-4.33	-1.33	0.67	2.67	0.67	6.67	3.67	8.67	8.67	6.67	6.67	6.67	13.67	5.67	5.67	1.67	2.67	4.67	4.67	11.67	10.67	7.67
831	52.759	13.67	-2.67	-4.67	3.33	-3.67	1.33	-3.67	-2.67	-1.67	-0.67	-3.67	8.33	2.33	2.33	-4.67	1.33	0.33	1.33	5.33	0.33	2.33	1.33	1.33	-0.67	6.33	2.33	-2.67
863	54.795	16.0	-7.0	-9.0	-6.0	-2.0	-6.0	-8.0	-5.0	-1.0	-1.0	-2.0	-1.0	-5.0	-3.0	6.0	-5.0	-1.0	-6.0	1.0	-2.0	-7.0	-10.0	-4.0	-2.0	-9.0	-12.0	-5.0
895	56.833	19.67	-6.67	-7.67	-5.67	-6.67	-9.67	-11.67	-8.67	-8.67	2.33	-2.67	-8.67	-6.67	-9.67	-2.67	-6.67	-9.67	-6.67	-0.67	-6.67	-7.67	-5.67	-7.67	4.33	-6.67	-4.67	-3.67
927	58.873	18.0	5.0	-7.0	1.0	6.0	9.0	-7.0	1.0	-4.0	2.0	-2.0	-3.0	2.0	1.0	1.0	1.0	-3.0	-8.0	-7.0	0.0	-5.0	0.0	1.0	-8.0	-3.0	-2.0	-6.0
959	60.915	17.33	-3.33	5.67	-1.33	-5.33	-1.33	-5.33	-2.33	2.67	0.67	-5.33	-6.33	0.67	-5.33	-9.33	-9.33	-8.33	-5.33	-7.33	-2.33	-5.33	-3.33	-5.33	-2.33	-5.33	-4.33	-3.33
991	62.958	17.67	5.33	-7.67	-1.67	-0.67	-2.67	-2.67	4.33	-0.67	5.33	2.33	-5.67	-7.67	1.33	1.33	-1.67	0.33	-7.67	0.33	-0.67	-6.67	-7.67	6.33	3.33	3.33	2.33	0.33
1023	65.004	20.33	0.67	17.67	2.67	6.67	7.67	4.67	7.67	11.67	7.67	0.67	0.67	4.67	-4.33	-8.33	4.67	-5.33	6.67	0.67	1.67	0.67	2.67	-1.33	-2.33	-0.33	-1.33	7.67
1055	67.052	20.67	-5.67	-1.67	0.33	7.33	-3.67	2.33	-6.67	3.33	3.33	-4.67	0.33	3.33	0.33	3.33	-4.67	-3.67	1.33	1.33	-1.67	-2.67	-7.67	-7.67	-6.67	-5.67	-9.67	2.33
1087	69.103	17.67	-0.67	-0.67	-2.67	-2.67	-5.67	0.33	3.33	7.33	3.33	0.33	-4.67	-4.67	0.33	-6.67	-0.67	-1.67	-1.67	5.33	-6.67	5.33	-1.67	4.33	-7.67	3.33	-2.67	6.33
1119	71.156	12.33	4.67	3.67	2.67	2.67	5.67	4.67	0.67	7.67	6.67	5.67	-2.33	6.67	7.67	5.67	6.67	9.67	5.67	5.67	-3.33	-5.33	3.67	10.67	0.67	0.67	1.67	10.67
1151	73.212	26.33	-12.33	6.67	7.67	15.67	-2.33	-7.33	8.67	13.67	-0.33	17.67	1.67	11.67	6.67	4.67	-0.33	10.67	7.67	7.67	9.67	11.67	0.67	11.67	10.67	4.67	4.67	6.67
1183	75.272	41.0	1.0	6.0	-1.0	5.0	7.0	-5.0	18.0	4.0	11.0	12.0	9.0	5.0	3.0	13.0	8.0	4.0	6.0	-2.0	-1.0	18.0	8.0	9.0	18.0	0.0	7.0	10.0
1215	77.334	16.67	5.33	-1.67	2.33	-2.67	0.33	4.33	0.33	2.33	5.33	6.33	1.33	8.33	4.33	4.33	-4.67	3.33	2.33	6.33	-2.67	3.33	0.33	-4.67	0.33	-9.67	0.33	1.33
1247	79.4	15.67	-1.67	-0.67	8.33	4.33	-3.67	4.33	7.33	6.33	4.33	9.33	-1.67	11.33	0.33	8.33	6.33	5.33	8.33	7.33	-1.67	6.33	6.33	12.33	5.33	3.33	1.33	8.33
1279	81.469	15.33	5.67	10.67	5.67	16.67	14.67	3.67	12.67	10.67	8.67	10.67	19.67	11.67	19.67	8.67	11.67	11.67	11.67	16.67	16.67	13.67	24.67	9.67	23.67	16.67	16.67	7.67
1311	83.542	21.33	100.67	205.67	239.67	214.67	235.67	195.67	163.67	167.67	126.67	134.67	144.67	113.67	124.67	108.67	107.67	82.67	77.67	78.67	101.67	50.67	76.67	81.67	76.67	78.67	71.67	69.67
1343	85.619	28.0	6.0	12.0	3.0	9.0	18.0	10.0	15.0	14.0	14.0	13.0	5.0	9.0	8.0	17.0	16.0	9.0	5.0	5.0	3.0	14.0	14.0	22.0	8.0	10.0	12.0	3.0
1375	87.7	29.0	3.0	-2.0	-7.0	-7.0	-2.0	-4.0	16.0	10.0	3.0	3.0	6.0	2.0	5.0	-1.0	1.0	-4.0	7.0	3.0	10.0	15.0	-7.0	15.0	-1.0	4.0	5.0	8.0
1407	89.786	22.33	3.67	2.67	5.67	6.67	4.67	9.67	3.67	6.67	1.67	9.67	17.67	7.67	1.67	8.67	1.67	10.67	5.67	10.67	9.67	4.67	22.67	5.67	10.67	10.67	1.67	12.67
1439	91.875	28.33	2.67	3.67	8.67	4.67	6.67	6.67	0.67	-6.33	3.67	-3.33	1.67	7.67	-2.33	8.67	9.67	12.67	14.67	7.67	0.67	-1.33	-2.33	-4.33	-14.33	13.67	6.67	8.67
1471	93.97	29.67	-2.67	-2.67	-2.67	-0.67	7.33	-9.67	-8.67	-5.67	4.33	-6.67	10.33	12.33	-3.67	4.33	-3.67	1.33	-2.67	7.33	7.33	5.33	2.33	8.33	2.33	0.33	5.33	19.33
1503	96.069	36.0	-7.0	-5.0	-1.0	1.0	-9.0	2.0	-1.0	5.0	2.0	1.0	6.0	6.0	21.0	2.0	10.0	-3.0	6.0	-3.0	-2.0	7.0	12.0	15.0	26.0	14.0	11.0	10.0
1535	98.172	33.67	-10.67	-2.67	-12.67	3.33	-0.67	0.33	-3.67	2.33	7.33	8.33	6.33	22.33	0.33	24.33	7.33	17.33	19.33	13.33	18.33	5.33	0.33	9.33	15.33	15.33	8.33	15.33
1567	100.281	29.0	5.0	10.0	7.0	5.0	1.0	9.0	3.0	8.0	11.0	3.0	9.0	6.0	9.0	-1.0	4.0	9.0	-1.0	11.0	9.0	11.0	18.0	16.0	5.0	5.0	5.0	14.0
1599	102.395	34.33	-1.33	-4.33	13.67	10.67	3.67	11.67	3.67	6.67	3.67	2.67	3.67	9.67	15.67	-2.33	-6.33	13.67	2.67	-3.33	-1.33	3.67	-2.33	3.67	5.67	1.67	-3.33	11.67
1631	104.515	28.33	-6.33	2.67	-1.33	2.67	-0.33	-2.33	1.67	10.67	3.67	1.67	7.67	9.67	3.67	-1.33	15.67	3.67	5.67	-0.33	4.67	0.67	0.67	1.67	-3.33	-0.33	9.67	8.67
1663	106.64	27.67	0.33	-2.67	-2.67	-6.67	2.33	-5.67	-4.67	5.33	1.33	-0.67	1.33	-7.67	-2.67	-4.67	-8.67	-8.67	-6.67	-7.67	1.33	3.33	9.33	2.33	-3.67	1.33	4.33	4.33
1695	108.771	26.0	-8.0	3.0	-4.0	-5.0	-2.0	3.0	0.0	2.0	-5.0	0.0	-5.0	-2.0	-2.0	2.0	11.0	2.0	2.0	3.0	0.0	6.0	-7.0	-2.0	7.0	-1.0	-2.0	8.0
1727	110.908	21.33	0.67	10.67	-0.33	4.67	-1.33	2.67	4.67	5.67	9.67	2.67	7.67	2.67	1.67	7.67	-0.33	-5.33	-5.33	10.67	5.67	-2.33	6.67	3.67	-4.33	0.67	5.67	5.67
1759	113.051	18.67	6.33	2.33	8.33	-1.67	8.33	7.33	9.33	8.33	8.33	4.33	16.33	9.33	2.33	-0.67	11.33	8.33	6.33	3.33	6.33	8.33	-0.67	8.33	5.33	9.33	2.33	2.33
1791	115.2	19.67	6.33	1.33	-4.67	3.33	1.33	3.33	-0.67	-2.67	-1.67	5.33	-0.67	-3.67	-0.67	3.33	0.33	2.33	-5.67	-0.67	5.33	2.33	-2.67	0.33	0.33	-2.67	-4.67	-3.67
1823	117.355	15.67	6.33	4.33	-3.67	-0.67	-0.67	4.33	1.33	2.33	5.33	8.33	8.33	-2.67	-3.67	5.33	4.33	0.33	1.33	-4.67	7.33	1.33	7.33	3.33	4.33	2.33	-3.67	-2.67
1855	119.518	12.67	1.33	8.33	4.33	3.33	3.33	0.33	6.33	7.33	-1.67	-3.67	-5.67	2.33	7.33	-1.67	-4.67	-0.67	1.33	4.33	5.33	2.33	5.33	-2.67	5.33	8.33	8.33	-0.67
1887	121.686	14.67	-5.67	-3.67	-4.67	-5.67	-1.67	7.33	-1.67	2.33	1.33	1.33	-1.67	-0.67	8.33	3.33	-1.67	2.33	-4.67	-2.67	-4.67	2.33	-0.67	-2.67	-0.67	-2.67	-0.67	3.33
1919	123.862	13.0	0.0	-2.0	3.0	0.0	-2.0	-6.0	8.0	6.0	1.0	2.0	-1.0	13.0	-2.0	5.0	-6.0	8.0	-1.0	4.0	0.0	0.0	-5.0	2.0	1.0	-1.0	9.0	4.0
1951	126.045	10.0	4.0	6.0	3.0	1.0	6.0	-4.0	-2.0	-4.0	3.0	-1.0	-3.0	2.0	4.0	-3.0	2.0	3.0	3.0	2.0	2.0	2.0	2.0	4.0	1.0	-2.0	4.0	6.0
1983	128.235	7.67	5.33	0.33	0.33	5.33	3.33	3.33	-0.67	-5.67	7.33	3.33	1.33	3.33	4.33	1.33	4.33	3.33	8.33	3.33	0.33	1.33	5.33	4.33	3.33	5.33	-0.67	0.33
2015	130.433	7.33	-4.33	1.67	1.67	0.67	-3.33	0.67	2.67	4.67	3.67	-1.33	-0.33	2.67	1.67	-0.33	2.67	1.67	3.67	0.67	0.67	7.67	4.67	5.67	0.67	1.67	3.67	1.67
2047	132.638	5.33	8.67	2.67	3.67	2.67	2.67	5.67	3.67	-0.33	5.67	7.67	0.67	3.67	5.67	-0.33	7.67	0.67	0.67	5.67	4.67	3.67	1.67	3.67	2.67	11.67	7.67	7.67