File: EDX Back Ups and Old Files/EDX Processed Data/Low pH SF 25C 4d.txt
Name: Low pH SF 25C 4d
Number of Scans: 29
Positions: [-13.0, -12.75, -12.5, -12.25, -12.0, -11.75, -11.5, -11.25, -11.0, -10.75, -10.5, -10.25, -10.0, -9.75, -9.5, -9.25, -9.0, -8.75, -8.5, -8.25, -8.0, -7.75, -7.5, -7.25, -7.0, -6.75, -6.5, -6.25, -6.0]
Points per Scan: 2048
Sample Edge: 3
Scans Off Sample: [0, 1, 2]
Conversion Features: [(275, 17444.3), (309, 19608.3), (913, 57981.7), (934, 59318.24), (1058, 67244.3)]
Degree of Fit: 3
Fit Coeffecients: [ 8.59183e-07 -0.001482  64.3003 -144.207]
pH: Low
Steel Fiber: True
Aging Temp.: 25
Aging Atm.: 100% CO2
Aging Humidity: None
Aging Time: 4

*********
#Bins	Energy [keV]	Avg. Background	-12.25	-12.0	-11.75	-11.5	-11.25	-11.0	-10.75	-10.5	-10.25	-10.0	-9.75	-9.5	-9.25	-9.0	-8.75	-8.5	-8.25	-8.0	-7.75	-7.5	-7.25	-7.0	-6.75	-6.5	-6.25	-6.0
30	1.783	20.0	-1.0	12.0	6.0	8.0	3.0	3.0	1.0	7.0	7.0	7.0	9.0	-4.0	-2.0	6.0	15.0	3.0	-1.0	4.0	-1.0	1.0	5.0	-2.0	-4.0	5.0	7.0	1.0
61	3.773	0.0	0.0	0.0	1.0	0.0	0.0	1.0	0.0	0.0	0.0	0.0	0.0	3.0	2.0	2.0	0.0	0.0	0.0	0.0	0.0	0.0	0.0	0.0	0.0	0.0	0.0	1.0
92	5.76	1.0	-1.0	-1.0	0.0	-1.0	-1.0	0.0	-1.0	1.0	-1.0	0.0	0.0	0.0	-1.0	1.0	0.0	-1.0	1.0	-1.0	-1.0	-1.0	0.0	0.0	-1.0	-1.0	1.0	-1.0
123	7.744	3.33	0.67	-3.33	-2.33	0.67	-2.33	1.67	-0.33	1.67	-2.33	0.67	5.67	4.67	7.67	2.67	-1.33	3.67	1.67	0.67	-1.33	0.67	-0.33	-1.33	-0.33	0.67	2.67	0.67
154	9.726	8.0	3.0	2.0	1.0	-2.0	1.0	-2.0	2.0	7.0	2.0	1.0	5.0	0.0	2.0	-5.0	2.0	2.0	6.0	2.0	-1.0	1.0	4.0	5.0	3.0	4.0	5.0	-1.0
185	11.706	8.67	5.33	1.33	2.33	0.33	-1.67	5.33	6.33	3.33	-0.67	7.33	6.33	2.33	4.33	5.33	-0.67	3.33	0.33	6.33	-2.67	10.33	7.33	7.33	5.33	12.33	1.33	3.33
216	13.684	7.0	3.0	9.0	-3.0	8.0	5.0	9.0	7.0	6.0	1.0	3.0	11.0	1.0	2.0	6.0	7.0	6.0	2.0	5.0	7.0	6.0	7.0	9.0	8.0	6.0	0.0	8.0
247	15.661	13.67	-4.67	-7.67	-6.67	4.33	-1.67	-4.67	3.33	-0.67	0.33	-7.67	-1.67	-1.67	-6.67	-0.67	0.33	0.33	1.33	2.33	2.33	2.33	-0.67	1.33	-5.67	2.33	-2.67	-5.67
278	17.635	7.0	1.0	3.0	8.0	4.0	5.0	5.0	0.0	3.0	1.0	1.0	6.0	1.0	2.0	0.0	5.0	2.0	3.0	-1.0	2.0	8.0	1.0	6.0	2.0	4.0	6.0	5.0
309	19.608	9.0	-3.0	-2.0	0.0	3.0	6.0	5.0	6.0	2.0	1.0	2.0	0.0	9.0	7.0	5.0	3.0	0.0	5.0	8.0	2.0	2.0	-1.0	1.0	3.0	6.0	-1.0	3.0
340	21.58	8.67	-2.67	7.33	-2.67	-5.67	0.33	6.33	-0.67	-0.67	-0.67	2.33	8.33	7.33	0.33	5.33	2.33	1.33	3.33	-4.67	4.33	4.33	-0.67	7.33	7.33	4.33	5.33	6.33
371	23.551	8.0	-1.0	-1.0	2.0	7.0	2.0	4.0	8.0	2.0	3.0	3.0	-1.0	-2.0	-1.0	5.0	1.0	2.0	0.0	1.0	-2.0	-6.0	7.0	4.0	2.0	5.0	10.0	8.0
402	25.521	8.0	-7.0	-1.0	-4.0	-4.0	-6.0	1.0	0.0	7.0	1.0	0.0	5.0	4.0	-3.0	1.0	2.0	3.0	-3.0	-1.0	1.0	-2.0	-4.0	6.0	-6.0	1.0	6.0	-1.0
433	27.49	6.0	0.0	0.0	2.0	10.0	-2.0	1.0	2.0	-1.0	1.0	2.0	0.0	-2.0	3.0	0.0	3.0	1.0	-4.0	3.0	3.0	2.0	5.0	0.0	0.0	3.0	1.0	2.0
464	29.458	7.0	0.0	1.0	-1.0	-3.0	2.0	-2.0	-2.0	-3.0	-4.0	-4.0	5.0	-2.0	-2.0	-1.0	1.0	3.0	-1.0	-2.0	-2.0	0.0	-1.0	1.0	1.0	-1.0	2.0	-1.0
495	31.426	8.67	-1.67	-0.67	-7.67	-3.67	-2.67	-3.67	-3.67	-0.67	-3.67	-2.67	-1.67	-5.67	-5.67	-0.67	-2.67	1.33	0.33	-1.67	0.33	1.33	-4.67	-2.67	-4.67	-2.67	-2.67	-0.67
526	33.393	5.33	-1.33	3.67	-0.33	0.67	1.67	-0.33	-2.33	-4.33	0.67	0.67	6.67	-1.33	1.67	2.67	1.67	2.67	-1.33	0.67	-0.33	1.67	-1.33	2.67	2.67	2.67	3.67	-2.33
557	35.36	7.0	-4.0	0.0	-3.0	-4.0	2.0	-2.0	3.0	-2.0	0.0	-5.0	-2.0	-2.0	-2.0	2.0	-1.0	0.0	-2.0	1.0	-1.0	-2.0	1.0	-1.0	-4.0	-1.0	4.0	-3.0
588	37.327	5.0	-1.0	4.0	5.0	-1.0	-5.0	4.0	4.0	4.0	2.0	0.0	-1.0	-1.0	-1.0	1.0	-2.0	1.0	0.0	-1.0	1.0	-2.0	1.0	3.0	-2.0	-2.0	0.0	0.0
619	39.294	7.0	-4.0	0.0	-4.0	-1.0	-3.0	-3.0	0.0	-3.0	1.0	-2.0	-2.0	-1.0	-3.0	-2.0	-2.0	-2.0	-3.0	-2.0	-3.0	-2.0	0.0	-3.0	1.0	-2.0	-3.0	0.0
650	41.261	4.67	1.33	-0.67	6.33	-0.67	1.33	0.33	0.33	-0.67	0.33	1.33	2.33	-1.67	5.33	1.33	1.33	-0.67	0.33	-0.67	-2.67	2.33	2.33	-1.67	-1.67	0.33	3.33	6.33
681	43.228	3.67	-1.67	3.33	4.33	0.33	0.33	6.33	-0.67	3.33	7.33	2.33	-1.67	2.33	4.33	6.33	3.33	3.33	5.33	8.33	6.33	3.33	6.33	3.33	-1.67	0.33	0.33	3.33
712	45.196	8.0	-1.0	-4.0	-4.0	-1.0	0.0	-5.0	1.0	2.0	-1.0	-3.0	-4.0	-2.0	0.0	-3.0	0.0	-1.0	-1.0	-1.0	0.0	-2.0	-2.0	1.0	0.0	-1.0	2.0	-2.0
743	47.165	7.67	-3.67	0.33	5.33	-3.67	-0.67	-2.67	2.33	-0.67	6.33	-1.67	5.33	-1.67	-2.67	3.33	2.33	2.33	4.33	1.33	-1.67	-1.67	-0.67	0.33	0.33	0.33	4.33	-0.67
774	49.135	6.67	3.33	2.33	2.33	0.33	7.33	7.33	2.33	1.33	2.33	-3.67	2.33	1.33	0.33	-0.67	7.33	2.33	1.33	-1.67	4.33	2.33	1.33	4.33	2.33	7.33	2.33	2.33
805	51.105	7.33	1.67	-4.33	2.67	5.67	3.67	6.67	0.67	-2.33	1.67	5.67	-0.33	6.67	3.67	3.67	8.67	1.67	4.67	3.67	2.67	-1.33	3.67	4.67	3.67	0.67	2.67	3.67
836	53.077	9.33	-4.33	-4.33	0.67	1.67	9.67	2.67	5.67	12.67	5.67	9.67	-2.33	4.67	8.67	3.67	-2.33	-1.33	0.67	3.67	-5.33	-0.33	0.67	-1.33	3.67	5.67	3.67	-1.33
867	55.05	7.33	0.67	-1.33	4.67	2.67	5.67	5.67	13.67	10.67	8.67	4.67	8.67	5.67	12.67	9.67	8.67	13.67	2.67	3.67	2.67	6.67	7.67	3.67	3.67	8.67	5.67	10.67
898	57.025	8.33	-1.33	2.67	4.67	3.67	6.67	9.67	10.67	12.67	11.67	1.67	0.67	13.67	6.67	12.67	5.67	2.67	0.67	7.67	6.67	8.67	11.67	9.67	4.67	6.67	0.67	5.67
929	59.001	11.67	1.33	9.33	8.33	20.33	6.33	20.33	21.33	20.33	28.33	20.33	8.33	6.33	8.33	18.33	8.33	9.33	18.33	12.33	13.33	20.33	8.33	26.33	10.33	11.33	8.33	21.33
960	60.978	7.33	0.67	4.67	5.67	17.67	22.67	11.67	7.67	22.67	12.67	9.67	9.67	5.67	12.67	8.67	10.67	10.67	14.67	15.67	7.67	14.67	10.67	6.67	17.67	7.67	4.67	11.67
991	62.958	8.33	1.67	5.67	14.67	49.67	48.67	54.67	44.67	65.67	47.67	40.67	30.67	20.67	29.67	47.67	19.67	30.67	25.67	14.67	24.67	24.67	24.67	19.67	14.67	22.67	10.67	15.67
1022	64.94	6.33	-0.33	5.67	12.67	19.67	33.67	15.67	26.67	23.67	16.67	27.67	14.67	22.67	13.67	18.67	27.67	19.67	21.67	15.67	18.67	25.67	17.67	16.67	20.67	16.67	11.67	16.67
1053	66.924	10.67	-2.67	11.33	19.33	13.33	17.33	43.33	25.33	30.33	32.33	28.33	22.33	34.33	22.33	11.33	34.33	52.33	34.33	31.33	27.33	27.33	17.33	23.33	24.33	34.33	45.33	18.33
1084	68.91	13.0	-3.0	-2.0	20.0	22.0	24.0	18.0	21.0	15.0	28.0	40.0	17.0	28.0	15.0	17.0	12.0	28.0	7.0	15.0	15.0	9.0	15.0	5.0	16.0	22.0	21.0	20.0
1115	70.899	9.33	-1.33	-4.33	11.67	19.67	12.67	6.67	6.67	8.67	16.67	12.67	13.67	10.67	11.67	15.67	10.67	13.67	13.67	18.67	5.67	8.67	8.67	7.67	15.67	17.67	3.67	16.67
1146	72.891	24.67	-6.67	-5.67	9.33	20.33	8.33	16.33	9.33	7.33	19.33	19.33	12.33	20.33	14.33	6.33	15.33	16.33	11.33	10.33	17.33	15.33	18.33	10.33	13.33	22.33	46.33	44.33
1177	74.885	27.0	-2.0	3.0	9.0	49.0	58.0	40.0	43.0	27.0	27.0	18.0	46.0	32.0	27.0	17.0	20.0	28.0	59.0	60.0	31.0	15.0	13.0	16.0	22.0	20.0	26.0	17.0
1208	76.883	11.0	0.0	16.0	29.0	55.0	62.0	65.0	86.0	72.0	58.0	58.0	80.0	52.0	63.0	36.0	31.0	57.0	63.0	87.0	57.0	99.0	120.0	149.0	98.0	53.0	35.0	18.0
1239	78.883	14.33	-7.33	49.67	79.67	90.67	62.67	66.67	95.67	46.67	54.67	44.67	30.67	33.67	25.67	31.67	31.67	26.67	33.67	46.67	33.67	24.67	28.67	37.67	30.67	60.67	47.67	39.67
1270	80.887	12.33	-4.33	8.67	7.67	23.67	23.67	18.67	46.67	31.67	10.67	26.67	20.67	18.67	16.67	16.67	8.67	18.67	29.67	18.67	20.67	16.67	6.67	19.67	27.67	11.67	22.67	25.67
1301	82.894	12.67	7.33	1.33	14.33	19.33	18.33	23.33	18.33	17.33	26.33	8.33	20.33	29.33	13.33	6.33	12.33	13.33	1.33	10.33	14.33	17.33	6.33	10.33	18.33	21.33	10.33	13.33
1332	84.905	28.67	-11.67	-3.67	2.33	15.33	23.33	27.33	14.33	31.33	21.33	14.33	18.33	22.33	15.33	24.33	14.33	7.33	13.33	9.33	26.33	13.33	12.33	21.33	17.33	19.33	10.33	19.33
1363	86.92	14.33	0.67	11.67	24.67	13.67	26.67	15.67	15.67	30.67	24.67	12.67	36.67	17.67	30.67	6.67	23.67	21.67	17.67	23.67	29.67	14.67	19.67	20.67	33.67	25.67	9.67	21.67
1394	88.938	19.0	5.0	4.0	4.0	15.0	18.0	5.0	14.0	26.0	19.0	3.0	10.0	15.0	5.0	13.0	9.0	8.0	9.0	14.0	15.0	10.0	11.0	17.0	7.0	2.0	11.0	8.0
1425	90.961	23.33	7.67	-7.33	3.67	7.67	10.67	2.67	5.67	-1.33	12.67	11.67	6.67	1.67	17.67	3.67	5.67	8.67	1.67	2.67	5.67	8.67	7.67	5.67	5.67	7.67	9.67	14.67
1456	92.987	17.67	1.33	5.33	10.33	13.33	20.33	13.33	17.33	18.33	13.33	11.33	18.33	11.33	13.33	12.33	7.33	19.33	12.33	14.33	16.33	21.33	12.33	21.33	7.33	17.33	11.33	13.33
1487	95.018	25.67	1.33	4.33	3.33	2.33	15.33	4.33	9.33	3.33	4.33	8.33	7.33	10.33	14.33	8.33	5.33	12.33	5.33	8.33	14.33	-3.67	0.33	15.33	8.33	-0.67	14.33	5.33
1518	97.054	27.67	-2.67	-1.67	-2.67	11.33	9.33	4.33	7.33	11.33	1.33	-3.67	7.33	23.33	-1.67	2.33	1.33	9.33	10.33	3.33	5.33	5.33	-0.67	9.33	8.33	13.33	3.33	18.33
1549	99.094	23.0	8.0	3.0	7.0	9.0	23.0	19.0	3.0	16.0	14.0	3.0	12.0	27.0	15.0	25.0	3.0	14.0	12.0	8.0	14.0	19.0	13.0	14.0	17.0	12.0	28.0	16.0
1580	101.14	26.33	1.67	4.67	-0.33	9.67	6.67	15.67	12.67	18.67	5.67	17.67	4.67	12.67	15.67	5.67	15.67	12.67	25.67	14.67	19.67	20.67	14.67	7.67	8.67	5.67	16.67	2.67
1611	103.19	27.67	3.33	-2.67	3.33	6.33	11.33	10.33	21.33	11.33	4.33	21.33	-1.67	1.33	1.33	0.33	3.33	7.33	12.33	13.33	7.33	7.33	11.33	7.33	3.33	-9.67	13.33	5.33
1642	105.245	25.33	4.67	2.67	4.67	-3.33	8.67	1.67	8.67	-3.33	-1.33	4.67	7.67	13.67	6.67	14.67	-5.33	13.67	4.67	12.67	3.67	0.67	0.67	2.67	7.67	7.67	23.67	21.67
1673	107.305	18.33	2.67	15.67	-1.33	6.67	5.67	16.67	9.67	6.67	-0.33	9.67	6.67	8.67	7.67	4.67	6.67	12.67	16.67	9.67	4.67	5.67	6.67	16.67	7.67	11.67	3.67	3.67
1704	109.371	16.0	9.0	5.0	11.0	4.0	9.0	12.0	10.0	7.0	4.0	5.0	18.0	3.0	7.0	14.0	7.0	-1.0	-1.0	6.0	14.0	16.0	11.0	6.0	9.0	8.0	-1.0	7.0
1735	111.443	22.33	-1.33	-5.33	0.67	2.67	5.67	-8.33	-6.33	10.67	-1.33	-1.33	6.67	0.67	-8.33	2.67	-3.33	0.67	-3.33	0.67	-1.33	2.67	0.67	1.67	10.67	-6.33	2.67	12.67
1766	113.52	14.33	0.67	6.67	2.67	9.67	2.67	13.67	4.67	13.67	13.67	7.67	6.67	11.67	2.67	12.67	0.67	8.67	7.67	9.67	8.67	8.67	4.67	18.67	0.67	4.67	9.67	11.67
1797	115.604	18.0	-7.0	-5.0	4.0	-1.0	7.0	-2.0	-5.0	8.0	11.0	5.0	-1.0	7.0	6.0	-3.0	5.0	0.0	-6.0	-6.0	10.0	3.0	2.0	3.0	1.0	-7.0	6.0	2.0
1828	117.693	16.67	-6.67	-9.67	0.33	-8.67	-5.67	0.33	4.33	0.33	8.33	-3.67	2.33	-4.67	-0.67	1.33	1.33	4.33	1.33	3.33	0.33	0.33	0.33	2.33	0.33	2.33	-3.67	-4.67
1859	119.788	10.0	6.0	3.0	5.0	7.0	6.0	0.0	10.0	5.0	12.0	1.0	4.0	13.0	3.0	11.0	3.0	-2.0	6.0	5.0	5.0	13.0	0.0	1.0	10.0	7.0	10.0	11.0
1890	121.89	9.33	7.67	6.67	5.67	8.67	-0.33	10.67	7.67	8.67	0.67	-1.33	-0.33	6.67	3.67	0.67	3.67	2.67	3.67	-0.33	7.67	5.67	6.67	2.67	3.67	7.67	7.67	5.67
1921	123.999	10.0	-1.0	1.0	4.0	0.0	6.0	-1.0	7.0	3.0	1.0	-3.0	-2.0	4.0	0.0	3.0	2.0	-2.0	8.0	1.0	6.0	1.0	3.0	7.0	-1.0	5.0	4.0	3.0
1952	126.114	10.33	0.67	-2.33	2.67	-2.33	2.67	0.67	5.67	3.67	-2.33	4.67	-2.33	2.67	7.67	0.67	1.67	3.67	7.67	2.67	1.67	-0.33	2.67	-4.33	4.67	4.67	3.67	-0.33
1983	128.235	9.0	0.0	-3.0	3.0	0.0	3.0	4.0	3.0	-4.0	5.0	9.0	5.0	-2.0	2.0	4.0	2.0	6.0	0.0	7.0	4.0	2.0	0.0	7.0	-2.0	3.0	2.0	-1.0
2014	130.364	8.0	-3.0	1.0	2.0	-1.0	3.0	3.0	4.0	1.0	-1.0	1.0	3.0	3.0	-1.0	-2.0	0.0	-1.0	-3.0	2.0	0.0	4.0	2.0	1.0	6.0	2.0	5.0	1.0
2045	132.5	7.33	3.67	1.67	2.67	4.67	5.67	6.67	-0.33	-0.33	5.67	4.67	4.67	-2.33	8.67	-1.33	2.67	4.67	4.67	0.67	2.67	1.67	-1.33	0.67	1.67	0.67	1.67	0.67
2047	132.638	7.67	1.33	-2.67	-1.67	-0.67	-2.67	-1.67	4.33	6.33	0.33	4.33	-1.67	1.33	0.33	-1.67	2.33	6.33	1.33	-0.67	-2.67	-4.67	6.33	2.33	9.33	3.33	-1.67	2.33