File: EDX Back Ups and Old Files/EDX Processed Data/Low pH SF 25C 9d.txt
Name: Low pH SF 25C 9d
Number of Scans: 29
Positions: [-13.0, -12.75, -12.5, -12.25, -12.0, -11.75, -11.5, -11.25, -11.0, -10.75, -10.5, -10.25, -10.0, -9.75, -9.5, -9.25, -9.0, -8.75, -8.5, -8.25, -8.0, -7.75, -7.5, -7.25, -7.0, -6.75, -6.5, -6.25, -6.0]
Points per Scan: 2048
Sample Edge: 3
Scans Off Sample: [0, 1, 2]
Conversion Features: [(275, 17444.3), (309, 19608.3), (913, 57981.7), (934, 59318.24), (1058, 67244.3)]
Degree of Fit: 3
Fit Coeffecients: [ 8.59183e-07 -0.001482  64.3003 -144.207]
pH: Low
Steel Fiber: True
Aging Temp.: 25
Aging Atm.: 100% CO2
Aging Humidity: None
Aging Time: 9

*********
#Bins	Energy [keV]	Avg. Background	-12.25	-12.0	-11.75	-11.5	-11.25	-11.0	-10.75	-10.5	-10.25	-10.0	-9.75	-9.5	-9.25	-9.0	-8.75	-8.5	-8.25	-8.0	-7.75	-7.5	-7.25	-7.0	-6.75	-6.5	-6.25	-6.0
30	1.783	27.0	0.0	4.0	-6.0	-3.0	-8.0	-5.0	-8.0	-13.0	1.0	2.0	-7.0	-5.0	-7.0	-6.0	-7.0	-3.0	5.0	-4.0	-5.0	-10.0	-9.0	-17.0	-8.0	-3.0	-9.0	-5.0
61	3.773	0.33	0.67	-0.33	0.67	-0.33	-0.33	-0.33	-0.33	-0.33	-0.33	-0.33	1.67	0.67	0.67	-0.33	0.67	-0.33	-0.33	-0.33	-0.33	0.67	0.67	-0.33	0.67	-0.33	-0.33	-0.33
92	5.76	0.67	-0.67	-0.67	1.33	-0.67	1.33	-0.67	-0.67	1.33	0.33	-0.67	0.33	-0.67	0.33	0.33	1.33	-0.67	-0.67	0.33	-0.67	0.33	0.33	0.33	0.33	0.33	-0.67	2.33
123	7.744	3.33	-2.33	-1.33	-0.33	0.67	1.67	-1.33	0.67	4.67	-0.33	-1.33	-0.33	1.67	0.67	7.67	0.67	3.67	0.67	-1.33	3.67	0.67	-1.33	0.67	0.67	-0.33	2.67	1.67
154	9.726	9.33	-2.33	-0.33	2.67	-0.33	1.67	-0.33	0.67	-1.33	-2.33	3.67	-1.33	-0.33	0.67	-1.33	2.67	4.67	0.67	-2.33	-0.33	10.67	-0.33	2.67	-4.33	5.67	6.67	6.67
185	11.706	11.67	-0.67	1.33	0.33	0.33	1.33	0.33	-3.67	0.33	-7.67	-1.67	4.33	-1.67	4.33	-0.67	4.33	-0.67	-2.67	-0.67	-0.67	-1.67	4.33	-2.67	1.33	-1.67	-1.67	-1.67
216	13.684	8.67	2.33	-3.67	4.33	0.33	8.33	-0.67	6.33	5.33	6.33	3.33	-1.67	1.33	4.33	0.33	-2.67	5.33	1.33	5.33	7.33	3.33	11.33	1.33	9.33	2.33	5.33	-3.67
247	15.661	11.33	-3.33	-2.33	4.67	-1.33	1.67	-6.33	5.67	3.67	3.67	8.67	-4.33	0.67	-4.33	-0.33	-3.33	3.67	-0.33	0.67	-3.33	-0.33	2.67	0.67	-1.33	3.67	-1.33	-4.33
278	17.635	7.0	-3.0	5.0	4.0	3.0	4.0	4.0	4.0	10.0	1.0	5.0	1.0	7.0	5.0	1.0	4.0	5.0	7.0	3.0	2.0	5.0	10.0	9.0	3.0	7.0	1.0	7.0
309	19.608	11.67	1.33	1.33	5.33	-2.67	-1.67	3.33	4.33	2.33	-3.67	-1.67	-4.67	-2.67	-0.67	-3.67	-4.67	-0.67	1.33	-1.67	-2.67	9.33	-2.67	-1.67	-3.67	-2.67	1.33	4.33
340	21.58	10.33	-4.33	-4.33	-2.33	-1.33	-2.33	1.67	-1.33	-0.33	0.67	-0.33	-1.33	3.67	-1.33	-2.33	0.67	-4.33	-6.33	2.67	1.67	1.67	0.67	4.67	2.67	3.67	3.67	-1.33
371	23.551	9.0	2.0	-2.0	-1.0	0.0	-3.0	0.0	0.0	1.0	2.0	-3.0	1.0	-1.0	1.0	-3.0	-3.0	5.0	-1.0	-3.0	-1.0	-3.0	0.0	0.0	1.0	0.0	-2.0	-4.0
402	25.521	9.0	1.0	2.0	-3.0	-1.0	0.0	1.0	-3.0	-3.0	-1.0	-2.0	3.0	-4.0	-2.0	-1.0	7.0	0.0	1.0	-4.0	2.0	7.0	-3.0	-2.0	3.0	1.0	1.0	4.0
433	27.49	10.0	1.0	-4.0	-3.0	-3.0	0.0	1.0	-1.0	-5.0	-5.0	-6.0	0.0	1.0	-3.0	-3.0	-3.0	-7.0	4.0	-4.0	-2.0	0.0	7.0	4.0	-5.0	4.0	-2.0	-2.0
464	29.458	7.0	1.0	-2.0	-1.0	-2.0	2.0	-4.0	-4.0	-3.0	0.0	2.0	-4.0	2.0	2.0	-2.0	-2.0	-2.0	-1.0	1.0	6.0	-4.0	-2.0	-4.0	-4.0	-2.0	-1.0	-2.0
495	31.426	4.67	-0.67	-1.67	-1.67	-0.67	0.33	3.33	4.33	1.33	7.33	3.33	5.33	1.33	0.33	2.33	1.33	2.33	12.33	-1.67	1.33	6.33	1.33	-0.67	4.33	4.33	1.33	3.33
526	33.393	4.0	2.0	7.0	4.0	2.0	6.0	1.0	4.0	3.0	2.0	0.0	10.0	-1.0	1.0	1.0	3.0	3.0	0.0	7.0	1.0	-1.0	3.0	1.0	5.0	4.0	4.0	4.0
557	35.36	5.0	-2.0	-2.0	2.0	-2.0	-1.0	2.0	1.0	0.0	-1.0	1.0	-1.0	-1.0	6.0	0.0	0.0	-1.0	-1.0	-2.0	-1.0	1.0	0.0	1.0	-1.0	0.0	1.0	1.0
588	37.327	4.33	-3.33	3.67	2.67	3.67	4.67	-0.33	1.67	-0.33	-1.33	1.67	-1.33	-2.33	1.67	2.67	0.67	-0.33	-0.33	0.67	2.67	1.67	-1.33	2.67	-0.33	0.67	5.67	1.67
619	39.294	7.0	-4.0	-4.0	4.0	-2.0	1.0	-3.0	-4.0	-1.0	-2.0	-2.0	-1.0	-4.0	-1.0	-3.0	2.0	-1.0	-4.0	-1.0	0.0	4.0	-2.0	-1.0	5.0	1.0	-1.0	-4.0
650	41.261	4.0	-2.0	2.0	0.0	0.0	5.0	0.0	2.0	3.0	4.0	7.0	6.0	3.0	0.0	1.0	3.0	-1.0	4.0	0.0	2.0	3.0	1.0	1.0	1.0	1.0	6.0	2.0
681	43.228	7.0	2.0	1.0	-2.0	-5.0	0.0	-2.0	2.0	-2.0	0.0	3.0	-4.0	-4.0	1.0	3.0	-1.0	-5.0	-1.0	2.0	0.0	-1.0	0.0	-3.0	1.0	-1.0	-2.0	0.0
712	45.196	5.67	0.33	-1.67	0.33	-0.67	2.33	1.33	0.33	-0.67	0.33	4.33	1.33	-0.67	2.33	-0.67	1.33	3.33	1.33	0.33	-1.67	3.33	5.33	8.33	4.33	-2.67	2.33	-1.67
743	47.165	7.33	2.67	-4.33	-0.33	-1.33	5.67	5.67	1.67	-0.33	2.67	-1.33	2.67	2.67	-1.33	1.67	-1.33	1.67	1.67	-3.33	-1.33	-0.33	1.67	-2.33	2.67	-1.33	-2.33	1.67
774	49.135	11.33	-1.33	-6.33	2.67	-6.33	-3.33	-0.33	3.67	-2.33	-3.33	-6.33	-4.33	-0.33	0.67	-2.33	1.67	-1.33	-4.33	-0.33	-2.33	-3.33	-3.33	-1.33	-5.33	-0.33	3.67	-3.33
805	51.105	12.0	-2.0	1.0	2.0	4.0	2.0	-7.0	-1.0	0.0	-1.0	-3.0	-2.0	-5.0	-3.0	-5.0	-3.0	-5.0	-3.0	-4.0	-5.0	-4.0	-4.0	-5.0	-4.0	2.0	5.0	-3.0
836	53.077	10.33	4.67	-3.33	1.67	1.67	4.67	5.67	-1.33	1.67	-3.33	-1.33	-0.33	2.67	-3.33	-1.33	3.67	8.67	0.67	-0.33	-3.33	-1.33	-1.33	-2.33	-4.33	-2.33	-1.33	-5.33
867	55.05	13.0	2.0	3.0	4.0	1.0	10.0	7.0	10.0	6.0	3.0	-1.0	3.0	-6.0	1.0	0.0	-2.0	6.0	-1.0	2.0	-4.0	2.0	-6.0	-3.0	-2.0	-1.0	8.0	-2.0
898	57.025	11.67	7.33	3.33	6.33	2.33	6.33	20.33	9.33	8.33	12.33	9.33	5.33	6.33	6.33	5.33	0.33	11.33	5.33	3.33	6.33	-0.67	8.33	4.33	0.33	8.33	5.33	4.33
929	59.001	13.67	0.33	18.33	42.33	23.33	35.33	37.33	41.33	47.33	31.33	44.33	8.33	14.33	21.33	10.33	13.33	29.33	25.33	33.33	11.33	10.33	18.33	13.33	0.33	2.33	6.33	15.33
960	60.978	14.33	11.67	-2.33	22.67	15.67	3.67	2.67	12.67	16.67	15.67	4.67	4.67	4.67	4.67	3.67	-0.33	5.67	8.67	3.67	7.67	13.67	2.67	0.67	8.67	7.67	6.67	-1.33
991	62.958	13.67	4.33	-0.67	31.33	20.33	14.33	21.33	33.33	53.33	81.33	130.33	84.33	92.33	67.33	20.33	26.33	26.33	12.33	9.33	20.33	21.33	30.33	16.33	18.33	23.33	27.33	20.33
1022	64.94	18.0	9.0	-5.0	2.0	8.0	11.0	1.0	18.0	4.0	5.0	10.0	-2.0	9.0	-1.0	17.0	5.0	10.0	10.0	2.0	8.0	13.0	10.0	11.0	15.0	12.0	8.0	1.0
1053	66.924	17.67	2.33	7.33	6.33	22.33	33.33	58.33	52.33	73.33	64.33	50.33	23.33	18.33	15.33	17.33	15.33	14.33	33.33	17.33	32.33	5.33	22.33	20.33	7.33	21.33	30.33	16.33
1084	68.91	15.67	2.33	2.33	13.33	15.33	23.33	18.33	35.33	50.33	40.33	32.33	21.33	23.33	30.33	12.33	12.33	14.33	6.33	24.33	9.33	6.33	8.33	22.33	23.33	10.33	2.33	11.33
1115	70.899	13.67	-2.67	-0.67	7.33	7.33	13.33	13.33	11.33	10.33	11.33	2.33	5.33	7.33	-2.67	9.33	20.33	8.33	6.33	-4.67	4.33	7.33	12.33	12.33	7.33	5.33	3.33	13.33
1146	72.891	23.0	1.0	7.0	15.0	20.0	13.0	20.0	26.0	19.0	30.0	22.0	15.0	16.0	6.0	27.0	21.0	16.0	16.0	8.0	26.0	16.0	13.0	25.0	10.0	11.0	28.0	12.0
1177	74.885	26.0	7.0	16.0	33.0	33.0	42.0	42.0	34.0	17.0	15.0	23.0	29.0	44.0	67.0	99.0	92.0	61.0	23.0	28.0	27.0	26.0	33.0	44.0	29.0	29.0	35.0	32.0
1208	76.883	13.0	-1.0	39.0	43.0	36.0	76.0	71.0	58.0	34.0	29.0	68.0	87.0	65.0	38.0	43.0	52.0	36.0	64.0	72.0	67.0	44.0	50.0	25.0	10.0	15.0	20.0	18.0
1239	78.883	13.33	-0.33	15.67	22.67	44.67	50.67	46.67	54.67	33.67	37.67	39.67	59.67	55.67	52.67	49.67	36.67	79.67	60.67	52.67	40.67	79.67	56.67	77.67	59.67	56.67	20.67	27.67
1270	80.887	16.67	3.33	12.33	10.33	18.33	19.33	20.33	15.33	20.33	7.33	18.33	25.33	22.33	17.33	17.33	7.33	20.33	12.33	11.33	17.33	21.33	19.33	15.33	9.33	14.33	12.33	20.33
1301	82.894	12.67	13.33	15.33	14.33	14.33	20.33	27.33	24.33	15.33	15.33	29.33	13.33	13.33	13.33	15.33	15.33	17.33	17.33	20.33	10.33	14.33	15.33	23.33	19.33	29.33	19.33	15.33
1332	84.905	25.67	14.33	5.33	25.33	28.33	34.33	38.33	38.33	35.33	40.33	26.33	23.33	25.33	46.33	23.33	22.33	23.33	28.33	25.33	18.33	15.33	21.33	41.33	30.33	32.33	23.33	14.33
1363	86.92	19.67	1.33	9.33	29.33	31.33	30.33	35.33	25.33	22.33	20.33	25.33	6.33	11.33	34.33	16.33	22.33	14.33	24.33	17.33	11.33	15.33	17.33	14.33	24.33	13.33	29.33	19.33
1394	88.938	24.67	-10.67	0.33	-5.67	12.33	8.33	-2.67	9.33	1.33	7.33	-2.67	8.33	-3.67	24.33	-3.67	0.33	15.33	9.33	1.33	5.33	1.33	0.33	2.33	4.33	3.33	2.33	2.33
1425	90.961	23.67	3.33	1.33	-1.67	-0.67	13.33	8.33	13.33	-0.67	6.33	11.33	8.33	3.33	4.33	3.33	12.33	-4.67	12.33	1.33	8.33	-8.67	16.33	7.33	15.33	-3.67	12.33	4.33
1456	92.987	19.33	11.67	2.67	8.67	12.67	21.67	9.67	14.67	11.67	15.67	12.67	14.67	10.67	15.67	14.67	15.67	20.67	25.67	18.67	20.67	13.67	21.67	6.67	20.67	3.67	16.67	6.67
1487	95.018	35.33	-15.33	-6.33	-8.33	-16.33	2.67	-2.33	-13.33	-13.33	-16.33	1.67	-4.33	11.67	-1.33	-5.33	4.67	6.67	0.67	-11.33	-3.33	7.67	-10.33	-6.33	-5.33	-7.33	-6.33	1.67
1518	97.054	26.33	1.67	1.67	7.67	1.67	17.67	6.67	18.67	7.67	10.67	5.67	12.67	3.67	-3.33	4.67	8.67	0.67	9.67	16.67	15.67	9.67	1.67	9.67	-2.33	14.67	12.67	4.67
1549	99.094	28.67	7.33	-2.67	13.33	15.33	11.33	15.33	10.33	7.33	0.33	0.33	-2.67	-1.67	10.33	8.33	17.33	3.33	1.33	20.33	7.33	3.33	14.33	5.33	9.33	17.33	9.33	9.33
1580	101.14	25.33	13.67	5.67	17.67	6.67	21.67	23.67	8.67	12.67	6.67	5.67	9.67	13.67	18.67	22.67	4.67	13.67	13.67	17.67	18.67	28.67	12.67	7.67	11.67	7.67	14.67	13.67
1611	103.19	27.0	-2.0	2.0	-5.0	6.0	1.0	2.0	6.0	6.0	4.0	1.0	6.0	2.0	-6.0	2.0	14.0	26.0	23.0	2.0	7.0	9.0	5.0	13.0	7.0	5.0	1.0	-1.0
1642	105.245	25.0	-9.0	0.0	0.0	3.0	7.0	-5.0	-1.0	0.0	7.0	13.0	10.0	14.0	1.0	4.0	5.0	1.0	2.0	1.0	-2.0	7.0	3.0	9.0	8.0	6.0	3.0	2.0
1673	107.305	26.67	-7.67	2.33	-5.67	-4.67	2.33	7.33	4.33	2.33	7.33	6.33	15.33	8.33	-3.67	5.33	11.33	4.33	4.33	5.33	-2.67	4.33	6.33	-2.67	-4.67	3.33	0.33	4.33
1704	109.371	16.0	4.0	12.0	9.0	18.0	5.0	2.0	6.0	14.0	12.0	16.0	0.0	7.0	10.0	18.0	9.0	10.0	-1.0	9.0	1.0	11.0	12.0	16.0	10.0	6.0	14.0	6.0
1735	111.443	26.0	-1.0	-5.0	-10.0	-4.0	3.0	1.0	-3.0	0.0	-5.0	0.0	-2.0	-2.0	0.0	5.0	-4.0	-2.0	2.0	1.0	-1.0	4.0	-4.0	-5.0	-9.0	0.0	2.0	-10.0
1766	113.52	19.33	1.67	1.67	7.67	-0.33	3.67	0.67	7.67	13.67	3.67	-0.33	-2.33	3.67	0.67	-0.33	-5.33	-6.33	2.67	-2.33	-1.33	-7.33	2.67	4.67	4.67	9.67	0.67	5.67
1797	115.604	19.0	-6.0	0.0	-3.0	1.0	-2.0	-1.0	-5.0	1.0	9.0	3.0	2.0	3.0	3.0	0.0	-1.0	2.0	-4.0	0.0	-5.0	-9.0	2.0	3.0	-1.0	-2.0	-1.0	-1.0
1828	117.693	14.67	3.33	4.33	2.33	1.33	7.33	5.33	-0.67	-1.67	1.33	6.33	1.33	8.33	0.33	-2.67	1.33	2.33	-0.67	2.33	-0.67	-3.67	1.33	2.33	-2.67	4.33	4.33	6.33
1859	119.788	17.33	-4.33	-0.33	-3.33	-8.33	-2.33	-8.33	-3.33	-4.33	-3.33	-3.33	1.67	-0.33	-1.33	-1.33	-4.33	-8.33	1.67	10.67	7.67	2.67	7.67	-3.33	1.67	2.67	1.67	-5.33
1890	121.89	9.0	2.0	4.0	6.0	16.0	2.0	13.0	8.0	-1.0	8.0	5.0	3.0	12.0	14.0	5.0	7.0	0.0	7.0	10.0	4.0	7.0	5.0	4.0	11.0	4.0	10.0	7.0
1921	123.999	10.0	1.0	2.0	8.0	7.0	4.0	1.0	0.0	3.0	1.0	1.0	-2.0	0.0	2.0	5.0	1.0	2.0	4.0	-1.0	3.0	12.0	1.0	3.0	5.0	5.0	0.0	3.0
1952	126.114	10.33	0.67	-1.33	-4.33	4.67	-3.33	-5.33	1.67	-1.33	1.67	-3.33	-2.33	-0.33	4.67	4.67	1.67	3.67	3.67	6.67	3.67	-3.33	3.67	6.67	4.67	0.67	11.67	1.67
1983	128.235	11.0	-1.0	-6.0	-4.0	5.0	-2.0	-2.0	5.0	-3.0	6.0	2.0	2.0	5.0	-4.0	1.0	-3.0	4.0	1.0	2.0	-2.0	-3.0	-3.0	-3.0	1.0	8.0	4.0	4.0
2014	130.364	8.0	-1.0	-1.0	5.0	-2.0	1.0	6.0	3.0	-2.0	0.0	9.0	1.0	0.0	1.0	5.0	9.0	7.0	5.0	4.0	2.0	4.0	3.0	10.0	1.0	-2.0	-1.0	-2.0
2045	132.5	7.33	0.67	5.67	0.67	0.67	5.67	-0.33	7.67	1.67	0.67	-2.33	2.67	4.67	2.67	1.67	6.67	4.67	4.67	-0.33	-2.33	-1.33	-1.33	1.67	0.67	2.67	1.67	1.67
2047	132.638	9.33	-2.33	-1.33	1.67	-0.33	-3.33	1.67	-1.33	-2.33	0.67	0.67	-2.33	-1.33	0.67	-0.33	0.67	-5.33	1.67	4.67	-2.33	-2.33	-2.33	-0.33	1.67	-2.33	-2.33	1.67