File: EDX Back Ups and Old Files/EDX Processed Data/Low pH SF 25C 6d.txt
Name: Low pH SF 25C 6d
Number of Scans: 29
Positions: [-13.0, -12.75, -12.5, -12.25, -12.0, -11.75, -11.5, -11.25, -11.0, -10.75, -10.5, -10.25, -10.0, -9.75, -9.5, -9.25, -9.0, -8.75, -8.5, -8.25, -8.0, -7.75, -7.5, -7.25, -7.0, -6.75, -6.5, -6.25, -6.0]
Points per Scan: 2048
Sample Edge: 3
Scans Off Sample: [0, 1, 2]
Conversion Features: [(275, 17444.3), (309, 19608.3), (913, 57981.7), (934, 59318.24), (1058, 67244.3)]
Degree of Fit: 3
Fit Coeffecients: [ 8.59183e-07 -0.001482  64.3003 -144.207]
pH: Low
Steel Fiber: True
Aging Temp.: 25
Aging Atm.: 100% CO2
Aging Humidity: None
Aging Time: 6

*********
#Bins	Energy [keV]	Avg. Background	-12.25	-12.0	-11.75	-11.5	-11.25	-11.0	-10.75	-10.5	-10.25	-10.0	-9.75	-9.5	-9.25	-9.0	-8.75	-8.5	-8.25	-8.0	-7.75	-7.5	-7.25	-7.0	-6.75	-6.5	-6.25	-6.0
31	1.848	17.33	2.67	1.67	10.67	-6.33	-7.33	-1.33	-2.33	5.67	5.67	-1.33	7.67	1.67	5.67	-0.33	-3.33	0.67	1.67	0.67	-6.33	-3.33	0.67	-0.33	-3.33	1.67	7.67	-0.33
63	3.901	1.33	-0.33	-1.33	-0.33	-0.33	-1.33	-0.33	-1.33	-1.33	-0.33	-1.33	-1.33	-0.33	-0.33	-0.33	-0.33	-1.33	-0.33	-1.33	-0.33	-0.33	-1.33	-1.33	-1.33	-1.33	-1.33	-1.33
95	5.952	1.0	-1.0	0.0	-1.0	1.0	-1.0	-1.0	2.0	0.0	1.0	0.0	-1.0	-1.0	0.0	0.0	-1.0	0.0	-1.0	-1.0	2.0	1.0	0.0	1.0	0.0	0.0	0.0	-1.0
127	8.0	4.0	8.0	3.0	1.0	6.0	1.0	0.0	5.0	-2.0	3.0	0.0	12.0	1.0	4.0	0.0	-2.0	2.0	4.0	2.0	4.0	8.0	3.0	0.0	5.0	5.0	1.0	3.0
159	10.046	10.33	-1.33	-3.33	4.67	-3.33	-5.33	0.67	-4.33	2.67	1.67	-4.33	-1.33	1.67	-0.33	0.67	1.67	2.67	0.67	3.67	3.67	-2.33	-3.33	-0.33	4.67	6.67	0.67	0.67
191	12.089	11.33	2.67	0.67	1.67	-6.33	5.67	5.67	9.67	6.67	3.67	4.67	-0.33	-4.33	0.67	2.67	2.67	4.67	1.67	-7.33	5.67	2.67	0.67	0.67	2.67	3.67	-3.33	-4.33
223	14.131	11.33	-2.33	-3.33	0.67	-4.33	0.67	5.67	-1.33	1.67	-1.33	-0.33	1.67	-4.33	3.67	1.67	-4.33	0.67	-0.33	6.67	1.67	-0.33	5.67	-1.33	-2.33	2.67	4.67	-3.33
255	16.17	11.0	-1.0	-2.0	5.0	0.0	-2.0	3.0	-1.0	5.0	-1.0	-6.0	2.0	0.0	12.0	3.0	-1.0	2.0	1.0	3.0	3.0	4.0	3.0	5.0	3.0	-2.0	-3.0	2.0
287	18.208	9.33	-1.33	-3.33	-1.33	2.67	0.67	1.67	2.67	8.67	3.67	0.67	3.67	-4.33	1.67	-2.33	6.67	5.67	0.67	5.67	3.67	4.67	3.67	4.67	0.67	-0.33	3.67	1.67
319	20.245	8.0	0.0	9.0	-1.0	8.0	0.0	6.0	1.0	1.0	2.0	2.0	4.0	4.0	1.0	1.0	9.0	1.0	2.0	7.0	8.0	0.0	4.0	5.0	2.0	6.0	2.0	0.0
351	22.28	9.33	0.67	5.67	2.67	3.67	9.67	-1.33	8.67	2.67	2.67	0.67	-0.33	3.67	-0.33	1.67	4.67	9.67	0.67	0.67	0.67	-0.33	-0.33	-0.33	3.67	-1.33	1.67	8.67
383	24.314	7.33	2.67	7.67	-0.33	2.67	-2.33	2.67	1.67	-1.33	-2.33	-0.33	3.67	6.67	3.67	-0.33	0.67	1.67	3.67	-1.33	1.67	10.67	2.67	2.67	0.67	1.67	2.67	-2.33
415	26.347	12.0	-3.0	-3.0	-6.0	-1.0	-5.0	-3.0	-4.0	-1.0	2.0	-4.0	0.0	-7.0	4.0	-6.0	-4.0	-2.0	-3.0	-2.0	-2.0	-7.0	-4.0	-8.0	-3.0	-1.0	-3.0	-2.0
447	28.379	10.0	-8.0	-6.0	0.0	-2.0	-4.0	-5.0	0.0	-4.0	-5.0	-3.0	-2.0	-4.0	1.0	-3.0	-5.0	-3.0	-1.0	-1.0	-2.0	1.0	-2.0	6.0	7.0	-2.0	-5.0	0.0
479	30.41	5.0	7.0	2.0	4.0	5.0	4.0	1.0	2.0	-1.0	1.0	-1.0	2.0	3.0	-2.0	5.0	-1.0	0.0	0.0	1.0	9.0	-1.0	2.0	-2.0	3.0	2.0	1.0	1.0
511	32.441	9.33	-8.33	-5.33	-2.33	-5.33	-5.33	0.67	-1.33	-5.33	-2.33	-3.33	-3.33	-1.33	-4.33	-1.33	0.67	2.67	-4.33	0.67	-3.33	-0.33	-1.33	-1.33	-5.33	-2.33	-5.33	-2.33
543	34.471	6.0	-2.0	-2.0	1.0	-1.0	-3.0	1.0	-1.0	1.0	1.0	1.0	-2.0	-1.0	0.0	1.0	0.0	1.0	0.0	-2.0	-1.0	-1.0	-4.0	3.0	3.0	-4.0	-2.0	2.0
575	36.502	5.67	-1.67	5.33	-2.67	-2.67	0.33	0.33	0.33	1.33	0.33	-3.67	0.33	1.33	1.33	0.33	2.33	-0.67	3.33	-0.67	5.33	0.33	-2.67	1.33	0.33	-2.67	-0.67	-0.67
607	38.532	4.33	1.67	2.67	5.67	1.67	0.67	-3.33	-0.33	1.67	2.67	-1.33	-0.33	-0.33	-0.33	1.67	4.67	-2.33	-1.33	6.67	2.67	-3.33	-2.33	1.67	1.67	2.67	2.67	2.67
639	40.563	6.33	-2.33	6.67	1.67	-0.33	-1.33	-0.33	1.67	-3.33	-1.33	0.67	-3.33	-3.33	-1.33	0.67	1.67	-0.33	-3.33	-3.33	1.67	1.67	-0.33	1.67	-1.33	-4.33	-3.33	-4.33
671	42.594	6.33	2.67	3.67	-0.33	-1.33	-1.33	1.67	-6.33	0.67	2.67	-4.33	5.67	2.67	-0.33	-4.33	-4.33	-4.33	3.67	3.67	2.67	-1.33	-3.33	-1.33	-4.33	-1.33	1.67	-0.33
703	44.625	8.67	-3.67	-0.67	0.33	1.33	0.33	0.33	3.33	-0.67	-4.67	-1.67	-0.67	-5.67	-0.67	-1.67	0.33	-1.67	-0.67	-3.67	-2.67	-2.67	-0.67	-3.67	-3.67	-4.67	1.33	-0.67
735	46.657	7.67	6.33	-2.67	1.33	-0.67	-0.67	2.33	2.33	1.33	9.33	-4.67	0.33	-2.67	-3.67	-2.67	2.33	-0.67	-1.67	0.33	5.33	-0.67	1.33	0.33	1.33	-0.67	-1.67	1.33
767	48.69	12.67	-7.67	0.33	-10.67	-3.67	0.33	-0.67	-3.67	-8.67	-3.67	-5.67	-9.67	-1.67	-2.67	0.33	-3.67	-9.67	-0.67	-1.67	-4.67	-10.67	2.33	-6.67	-4.67	-2.67	-2.67	-3.67
799	50.724	11.0	2.0	-3.0	2.0	-2.0	-6.0	1.0	4.0	-2.0	1.0	1.0	-7.0	-4.0	4.0	-3.0	3.0	-6.0	6.0	0.0	-2.0	0.0	-5.0	0.0	-2.0	5.0	1.0	2.0
831	52.759	19.0	-10.0	-11.0	-8.0	-7.0	-7.0	-4.0	-3.0	-14.0	-4.0	-8.0	-9.0	-8.0	-8.0	-9.0	-9.0	-4.0	0.0	-4.0	-9.0	-13.0	-3.0	-4.0	-7.0	-7.0	-4.0	-12.0
863	54.795	18.33	-4.33	-7.33	-2.33	0.67	1.67	-3.33	5.67	-7.33	-6.33	-6.33	-5.33	-4.33	-4.33	-6.33	-10.33	-5.33	-0.33	-9.33	-7.33	-2.33	-6.33	-7.33	-3.33	-4.33	-6.33	-7.33
895	56.833	16.33	-8.33	0.67	-2.33	10.67	0.67	-1.33	0.67	2.67	4.67	4.67	-0.33	3.67	2.67	3.67	0.67	0.67	-4.33	-3.33	9.67	1.67	0.67	-5.33	1.67	-4.33	2.67	-6.33
927	58.873	19.0	-8.0	5.0	15.0	27.0	20.0	11.0	6.0	9.0	9.0	15.0	16.0	9.0	5.0	12.0	4.0	15.0	9.0	11.0	13.0	-1.0	5.0	12.0	5.0	1.0	2.0	3.0
959	60.915	18.67	-6.67	-1.67	3.33	0.33	-4.67	-1.67	12.33	0.33	-4.67	7.33	1.33	0.33	0.33	-1.67	3.33	-3.67	-10.67	-4.67	1.33	-2.67	4.33	-6.67	2.33	0.33	-1.67	2.33
991	62.958	19.33	-11.33	-0.33	15.67	1.67	12.67	17.67	16.67	15.67	15.67	31.67	71.67	107.67	86.67	42.67	7.67	13.67	12.67	15.67	7.67	2.67	1.67	14.67	14.67	22.67	11.67	28.67
1023	65.004	17.0	-2.0	8.0	5.0	8.0	15.0	15.0	13.0	24.0	26.0	12.0	6.0	6.0	10.0	2.0	17.0	14.0	6.0	7.0	7.0	12.0	15.0	-2.0	5.0	6.0	7.0	7.0
1055	67.052	18.67	-1.67	24.33	41.33	56.33	51.33	49.33	24.33	30.33	24.33	33.33	32.33	60.33	49.33	10.33	14.33	15.33	24.33	25.33	15.33	19.33	13.33	20.33	9.33	18.33	17.33	16.33
1087	69.103	14.0	1.0	15.0	30.0	50.0	36.0	29.0	36.0	26.0	31.0	35.0	51.0	45.0	37.0	16.0	15.0	20.0	9.0	18.0	25.0	21.0	18.0	17.0	17.0	12.0	12.0	27.0
1119	71.156	17.0	2.0	3.0	-1.0	4.0	4.0	12.0	-2.0	10.0	5.0	-1.0	2.0	3.0	-1.0	3.0	5.0	2.0	5.0	6.0	2.0	14.0	6.0	16.0	5.0	3.0	-2.0	5.0
1151	73.212	24.33	8.67	55.67	45.67	26.67	30.67	43.67	38.67	25.67	31.67	23.67	11.67	21.67	14.67	16.67	6.67	4.67	20.67	19.67	13.67	24.67	17.67	28.67	16.67	6.67	14.67	9.67
1183	75.272	41.67	2.33	28.33	104.33	206.33	154.33	134.33	135.33	98.33	52.33	118.33	86.33	43.33	47.33	53.33	57.33	64.33	72.33	89.33	107.33	72.33	74.33	40.33	13.33	42.33	44.33	24.33
1215	77.334	13.0	7.0	16.0	27.0	30.0	47.0	42.0	43.0	45.0	38.0	21.0	15.0	38.0	15.0	37.0	21.0	64.0	45.0	58.0	25.0	28.0	22.0	21.0	22.0	14.0	15.0	15.0
1247	79.4	17.0	-8.0	20.0	22.0	35.0	55.0	54.0	59.0	41.0	45.0	36.0	33.0	34.0	38.0	24.0	54.0	74.0	65.0	53.0	33.0	44.0	30.0	56.0	56.0	34.0	42.0	38.0
1279	81.469	17.67	-2.67	13.33	15.33	7.33	12.33	10.33	20.33	21.33	2.33	20.33	15.33	17.33	10.33	26.33	9.33	13.33	4.33	21.33	15.33	3.33	9.33	12.33	12.33	11.33	3.33	10.33
1311	83.542	23.33	10.67	8.67	11.67	18.67	27.67	3.67	19.67	16.67	17.67	18.67	10.67	17.67	21.67	21.67	16.67	21.67	10.67	9.67	1.67	9.67	11.67	6.67	13.67	5.67	10.67	10.67
1343	85.619	24.33	9.67	26.67	15.67	38.67	65.67	40.67	29.67	19.67	13.67	28.67	31.67	22.67	15.67	21.67	19.67	30.67	12.67	28.67	34.67	24.67	15.67	29.67	19.67	26.67	19.67	30.67
1375	87.7	27.67	5.33	-1.67	9.33	14.33	18.33	3.33	10.33	25.33	17.33	11.33	26.33	20.33	10.33	16.33	25.33	43.33	33.33	30.33	28.33	20.33	20.33	27.33	24.33	16.33	25.33	15.33
1407	89.786	24.67	7.33	4.33	3.33	9.33	3.33	12.33	15.33	9.33	1.33	-1.67	4.33	8.33	9.33	8.33	0.33	6.33	9.33	7.33	6.33	16.33	13.33	1.33	12.33	16.33	6.33	13.33
1439	91.875	29.67	-12.67	-10.67	4.33	-6.67	5.33	-5.67	5.33	2.33	0.33	5.33	6.33	4.33	5.33	-0.67	10.33	2.33	5.33	10.33	8.33	-5.67	6.33	4.33	-1.67	15.33	12.33	6.33
1471	93.97	31.67	11.33	-0.67	3.33	5.33	-1.67	7.33	0.33	4.33	0.33	-5.67	1.33	-4.67	8.33	1.33	-0.67	7.33	1.33	2.33	12.33	-3.67	18.33	10.33	4.33	2.33	11.33	11.33
1503	96.069	31.33	-6.33	0.67	8.67	1.67	21.67	1.67	12.67	8.67	10.67	-8.33	4.67	-0.33	7.67	6.67	13.67	-0.33	8.67	12.67	0.67	8.67	7.67	5.67	10.67	7.67	2.67	0.67
1535	98.172	38.0	-10.0	0.0	12.0	5.0	5.0	14.0	-7.0	3.0	-6.0	7.0	2.0	9.0	2.0	-3.0	-1.0	2.0	4.0	2.0	-1.0	7.0	10.0	0.0	-2.0	12.0	17.0	2.0
1567	100.281	33.33	0.67	-4.33	13.67	12.67	14.67	3.67	9.67	2.67	4.67	-2.33	5.67	16.67	9.67	-0.33	17.67	4.67	13.67	11.67	13.67	11.67	9.67	9.67	4.67	13.67	13.67	0.67
1599	102.395	30.33	-3.33	-0.33	9.67	3.67	11.67	9.67	-0.33	0.67	7.67	22.67	4.67	12.67	16.67	10.67	5.67	11.67	18.67	12.67	12.67	5.67	1.67	13.67	2.67	2.67	14.67	17.67
1631	104.515	29.33	2.67	-3.33	0.67	-5.33	-2.33	1.67	20.67	16.67	13.67	8.67	-2.33	8.67	-2.33	9.67	7.67	13.67	8.67	18.67	1.67	6.67	7.67	10.67	15.67	8.67	1.67	1.67
1663	106.64	30.67	-1.67	-0.67	10.33	-2.67	6.33	-5.67	9.33	8.33	4.33	7.33	0.33	-0.67	3.33	9.33	12.33	0.33	-5.67	-0.67	-7.67	-5.67	3.33	-6.67	-3.67	3.33	-1.67	5.33
1695	108.771	27.67	3.33	-4.67	0.33	-5.67	-2.67	3.33	-6.67	5.33	-9.67	0.33	-2.67	8.33	-2.67	-0.67	0.33	7.33	-1.67	0.33	-5.67	3.33	0.33	5.33	6.33	6.33	-2.67	-13.67
1727	110.908	22.67	0.33	7.33	-1.67	0.33	8.33	8.33	5.33	-3.67	-0.67	8.33	6.33	5.33	0.33	0.33	-8.67	4.33	8.33	5.33	3.33	6.33	7.33	8.33	10.33	9.33	7.33	6.33
1759	113.051	18.67	-1.67	9.33	0.33	6.33	2.33	1.33	8.33	9.33	12.33	14.33	4.33	-1.67	5.33	-0.67	6.33	-6.67	3.33	5.33	1.33	7.33	2.33	18.33	5.33	-2.67	11.33	6.33
1791	115.2	17.33	-3.33	1.67	6.67	3.67	-6.33	6.67	3.67	5.67	2.67	7.67	6.67	8.67	7.67	-2.33	3.67	6.67	5.67	2.67	-1.33	5.67	-1.33	2.67	3.67	7.67	3.67	9.67
1823	117.355	21.33	-5.33	-13.33	-6.33	-4.33	-6.33	1.67	-8.33	-12.33	-3.33	-7.33	-9.33	-3.33	-9.33	-6.33	-1.33	-5.33	-5.33	-6.33	-4.33	1.67	-5.33	-5.33	0.67	-0.33	-5.33	-0.33
1855	119.518	12.33	-2.33	3.67	8.67	-2.33	3.67	0.67	-0.33	5.67	3.67	4.67	2.67	1.67	2.67	2.67	4.67	-1.33	5.67	3.67	5.67	7.67	2.67	4.67	8.67	12.67	10.67	5.67
1887	121.686	13.33	2.67	-5.33	-3.33	-1.33	8.67	-1.33	-1.33	-0.33	0.67	-3.33	4.67	3.67	3.67	0.67	-4.33	8.67	-2.33	-0.33	-0.33	8.67	-3.33	-2.33	0.67	5.67	-1.33	2.67
1919	123.862	12.33	-1.33	-4.33	-0.33	-0.33	5.67	-5.33	1.67	-0.33	1.67	-4.33	1.67	-3.33	-1.33	2.67	-1.33	0.67	-1.33	3.67	-4.33	-4.33	4.67	-2.33	-6.33	6.67	1.67	-4.33
1951	126.045	8.67	0.33	-2.67	-1.67	-0.67	1.33	5.33	-2.67	3.33	0.33	3.33	3.33	-2.67	9.33	-4.67	6.33	5.33	-0.67	3.33	1.33	-0.67	8.33	9.33	7.33	9.33	4.33	0.33
1983	128.235	12.0	-3.0	0.0	-4.0	0.0	-6.0	-3.0	-1.0	-3.0	2.0	-2.0	-3.0	5.0	-2.0	1.0	-2.0	-3.0	-6.0	-6.0	3.0	-4.0	-4.0	-1.0	2.0	8.0	1.0	-2.0
2015	130.433	8.0	1.0	-3.0	1.0	2.0	4.0	3.0	4.0	0.0	4.0	-6.0	-3.0	7.0	-2.0	5.0	3.0	6.0	0.0	1.0	5.0	4.0	-1.0	3.0	2.0	-2.0	4.0	4.0
2047	132.638	5.67	2.33	5.33	3.33	3.33	-0.67	1.33	-0.67	1.33	3.33	4.33	0.33	4.33	-0.67	4.33	7.33	2.33	5.33	2.33	1.33	-0.67	1.33	0.33	3.33	3.33	1.33	0.33