File: EDX Back Ups and Old Files/Spectra copy 3.3.23/Samples/Low pH SF 25C 2d/10.25.txt
0.0
-64.67
27.33
7.33
-4.67
-2.0
0.33
0.67
1.0
0.0
1.0
0.33
-1.0
-0.33
-0.67
-0.33
3.67
-1.0
0.33
-1.33
-1.67
7.33
3.67
2.67
1.33
1.33
-1.33
-2.0
1.0
2.0
-1.0
5.67
10.33
-1.0
-1.33
1.0
1.67
-0.33
-1.0
-4.0
1.0
2.0
2.67
2.33
2.0
2.67
9.67
-3.67
3.33
-3.67
-2.67
3.0
9.67
-2.33
-3.67
-0.33
0.67
3.0
-1.0
-4.67
-2.0
1.67
2.33
-1.0
3.0
2.0
2.0
3.33
0.67
3.0
1.33
2.33
8.33
-3.67
1.33
3.0
-1.33
-0.33
0.33
4.0
-4.0
1.0
-2.0
2.33
0.33
0.67
-1.0
0.0
-0.67
-0.33
-0.33
-5.33
-1.0
-3.33
-2.0
2.33
-4.67
0.33
5.33
6.33
1.0
1.0
6.67
0.67
4.67
3.33
3.0
7.67
3.0
2.67
2.67
-2.67
2.67
-1.0
4.67
4.0
4.0
1.0
0.67
-1.33
-0.33
8.67
1.0
10.33
4.33
8.33
11.67
6.67
9.67
9.0
4.0
5.67
11.0
3.0
60.67
56.33
32.33
9.67
5.67
32.33
46.0
83.67
95.0
27.0
9.33
11.0
13.33
10.67
20.0
18.0
27.33
36.33
25.67
41.0
31.0
32.33
23.33
21.0
26.0
28.0
11.0
10.67
17.0
14.67
18.33
24.67
8.0
7.0
34.0
41.33
75.33
61.67
39.33
21.33
34.0
24.67
33.0
40.0
28.0
52.0
37.0
15.33
20.67
14.67
9.67
12.67
5.67
6.33
13.67
23.33
23.33
32.67
25.33
25.33
28.0
34.0
34.67
27.33
14.67
5.33
15.33
9.33
18.0
-10.0
5.33
10.33
5.67
14.67
13.0
5.67
16.67
3.67
4.67
7.0
4.33
-1.0
10.67
12.67
4.67
18.33
9.67
6.67
8.67
14.67
24.0
9.67
1.33
11.67
8.33
0.33
6.0
16.33
-3.67
11.33
10.0
16.33
4.0
12.33
0.33
5.33
-4.67
16.0
-1.67
7.33
6.0
4.33
3.0
-2.33
3.67
8.67
4.0
11.0
7.33
4.0
4.33
-1.0
6.33
-0.67
4.67
4.33
8.0
1.33
1.0
0.33
4.33
6.0
5.33
5.67
0.0
-5.33
1.33
3.33
0.0
-0.33
10.0
8.33
0.67
1.67
1.0
4.67
9.33
1.0
3.0
-1.33
0.0
2.0
-5.67
5.0
-3.0
-0.33
-2.33
4.0
0.0
4.0