File: EDX Back Ups and Old Files/Spectra copy 3.3.23/Samples/Low pH SF 25C 2d/10.5.txt
0.0
70.33
-30.67
4.33
-6.67
0.0
-0.67
-0.33
1.0
1.0
0.0
-0.67
-1.0
0.67
0.33
-0.33
3.67
3.0
2.33
-1.33
4.33
4.33
4.67
0.67
5.33
-1.67
-0.33
2.0
0.0
6.0
-1.0
-0.33
8.33
6.0
-0.33
2.0
1.67
-2.33
6.0
8.0
4.0
1.0
4.67
1.33
7.0
2.67
2.67
-2.67
2.33
4.33
2.33
0.0
7.67
-1.33
2.33
4.67
9.67
0.0
-5.0
3.33
-1.0
-0.33
-1.67
0.0
6.0
-1.0
1.0
-0.67
-3.33
-2.0
1.33
5.33
-1.67
5.33
-0.67
-1.0
-2.33
0.67
3.33
1.0
1.0
1.0
3.0
5.33
3.33
-4.33
-1.0
-1.0
0.33
3.67
2.67
0.67
2.0
1.67
-2.0
2.33
1.33
-1.67
3.33
3.33
-4.0
2.0
1.67
5.67
-2.33
3.33
3.0
9.67
3.0
2.67
2.67
9.33
8.67
-2.0
2.67
9.0
11.0
3.0
1.67
-0.33
4.67
9.67
-1.0
8.33
8.33
6.33
6.67
6.67
6.67
10.0
10.0
7.67
10.0
14.0
43.67
38.33
12.33
10.67
9.67
8.33
33.0
92.67
109.0
62.0
21.33
18.0
24.33
18.67
34.0
45.0
43.33
71.33
54.67
47.0
37.0
25.33
23.33
40.0
38.0
18.0
15.0
12.67
7.0
15.67
30.33
18.67
15.0
19.0
32.0
35.33
66.33
101.67
76.33
33.33
34.0
26.67
56.0
54.0
59.0
51.0
42.0
26.33
22.67
6.67
-1.33
10.67
7.67
21.33
23.67
30.33
28.33
32.67
14.33
11.33
18.0
40.0
35.67
9.33
19.67
6.33
20.33
10.33
15.0
12.0
8.33
14.33
12.67
25.67
22.0
13.67
15.67
8.67
15.67
8.0
0.33
8.0
4.67
4.67
1.67
8.33
16.67
2.67
16.67
4.67
30.0
11.67
7.33
3.67
-7.67
9.33
15.0
16.33
3.33
7.33
16.0
4.33
13.0
11.33
7.33
1.33
5.33
8.0
-9.67
11.33
-2.0
-0.67
13.0
-3.33
5.67
14.67
11.0
7.0
8.33
10.0
6.33
1.0
3.33
-1.67
2.67
-4.67
7.0
-0.67
0.0
10.33
8.33
1.0
1.33
-0.33
2.0
2.67
-6.67
3.33
13.0
-0.33
2.0
-3.67
3.67
6.67
2.0
8.67
-3.67
-4.0
2.0
-1.33
-1.0
-3.0
-5.67
9.0
4.0
-1.33
-1.33
-3.0
-1.0
2.0