File: EDX Back Ups and Old Files/Spectra copy 3.3.23/Samples/Low pH SF 25C 2d/10.75.txt
0.0
-129.67
41.33
12.33
-1.67
-2.0
0.33
-0.33
0.0
1.0
0.0
-0.67
-1.0
-0.33
0.33
-0.33
2.67
1.0
-0.67
-1.33
-1.67
-0.67
6.67
3.67
7.33
-1.67
-8.33
5.0
3.0
2.0
4.0
-3.33
7.33
6.0
5.67
2.0
5.67
2.67
0.0
3.0
3.0
0.0
-2.33
-3.67
5.0
-5.33
3.67
-5.67
-3.67
3.33
1.33
0.0
0.67
0.67
-6.67
3.67
-2.33
1.0
1.0
1.33
3.0
5.67
-1.67
-4.0
2.0
0.0
5.0
2.33
-1.33
3.0
-1.67
0.33
-1.67
-0.67
2.33
-3.0
1.67
1.67
1.33
0.0
-2.0
-2.0
-3.0
-1.67
4.33
5.67
-6.0
6.0
-2.67
7.67
-1.33
3.67
-1.0
-1.33
-2.0
-0.67
-2.67
0.33
3.33
0.33
0.0
1.0
1.67
5.67
-3.33
8.33
-1.0
1.67
2.0
-0.33
-1.33
3.33
4.67
-1.0
1.67
1.0
7.0
6.0
2.67
2.67
3.67
-3.33
6.0
8.33
4.33
-0.67
6.67
2.67
6.67
0.0
7.0
12.67
33.0
31.0
41.67
18.33
7.33
12.67
8.67
20.33
37.0
45.67
83.0
57.0
30.33
16.0
10.33
19.67
34.0
39.0
29.33
62.33
54.67
40.0
22.0
32.33
33.33
42.0
17.0
27.0
15.0
11.67
16.0
17.67
22.33
22.67
10.0
15.0
29.0
81.33
152.33
151.67
85.33
55.33
27.0
22.67
59.0
46.0
53.0
42.0
31.0
15.33
17.67
12.67
7.67
2.67
12.67
2.33
16.67
29.33
25.33
12.67
24.33
12.33
23.0
35.0
30.67
16.33
10.67
7.33
8.33
13.33
13.0
5.0
13.33
20.33
13.67
17.67
19.0
17.67
24.67
4.67
1.67
7.0
-2.67
11.0
12.67
18.67
15.67
11.33
8.67
6.67
14.67
-8.33
26.0
7.67
9.33
7.67
-2.67
0.33
2.0
12.33
11.33
25.33
2.0
3.33
8.0
8.33
9.33
8.33
1.33
2.0
-15.67
-2.67
-2.0
7.33
2.0
2.67
11.67
11.67
0.0
7.0
-0.67
3.0
0.33
1.0
8.33
2.33
1.67
-2.67
-4.0
2.33
-5.0
4.33
8.33
-2.0
3.33
-4.33
5.0
9.67
1.33
-2.67
7.0
2.67
4.0
0.33
0.67
-1.33
5.0
4.67
-0.67
8.0
11.0
-3.33
0.0
-3.0
2.33
1.0
0.0
-3.33
-4.33
8.0
1.0
0.0