File: EDX Back Ups and Old Files/Spectra copy 3.3.23/Samples/Low pH SF 25C 2d/12.0.txt
0.0
-20.67
39.33
-19.67
9.33
-1.0
0.33
-0.33
0.0
0.0
2.0
-0.67
-1.0
-0.33
0.33
-0.33
0.67
-2.0
-0.67
-2.33
-1.67
3.33
2.67
2.67
1.33
0.33
-5.33
3.0
-1.0
-1.0
5.0
-5.33
5.33
0.0
2.67
0.0
2.67
6.67
3.0
0.0
-1.0
1.0
-2.33
1.33
6.0
4.67
5.67
-5.67
-2.67
-0.67
-3.67
0.0
-0.33
-1.33
1.33
1.67
0.67
4.0
1.0
-3.67
0.0
2.67
-1.67
-2.0
6.0
1.0
0.0
5.33
-2.33
2.0
2.33
2.33
0.33
3.33
-1.67
2.0
-4.33
-0.33
3.33
-1.0
-4.0
-2.0
2.0
2.33
1.33
-4.33
-1.0
3.0
-1.67
1.67
1.67
3.67
1.0
0.67
0.0
3.33
-3.67
5.33
-1.67
-0.67
-1.0
-1.0
0.67
3.67
3.67
3.33
6.0
3.67
2.0
-0.33
-0.33
-0.67
9.67
5.0
5.67
-1.0
2.0
-3.0
2.67
-2.33
4.67
1.67
-5.0
-2.67
2.33
0.33
7.67
-2.33
4.67
-3.0
3.0
-5.33
7.0
14.0
43.67
57.33
16.33
7.67
4.67
3.33
12.0
14.67
14.0
3.0
5.33
4.0
9.33
9.67
6.0
17.0
10.33
20.33
12.67
16.0
38.0
42.33
34.33
23.0
10.0
7.0
8.0
6.67
18.0
19.67
16.33
14.67
0.0
-1.0
11.0
38.33
104.33
95.67
49.33
39.33
61.0
51.67
23.0
30.0
24.0
22.0
14.0
16.33
15.67
-0.33
-3.33
4.67
11.67
17.33
23.67
21.33
13.33
20.67
-6.67
9.33
12.0
2.0
-0.33
5.33
-0.33
3.33
4.33
10.33
7.0
7.0
9.33
-3.67
0.67
5.67
-2.0
-9.33
4.67
7.67
-2.33
13.0
-10.67
-1.0
-4.33
-1.33
-1.33
6.33
8.67
3.67
18.67
7.67
28.0
11.67
10.33
-5.33
3.33
2.33
5.0
10.33
-1.67
5.33
-1.0
1.33
0.0
1.33
-2.67
4.33
-2.67
-1.0
-6.67
-3.67
6.0
-1.67
-1.0
-6.33
5.67
4.67
-10.0
7.0
1.33
2.0
7.33
4.0
2.33
5.33
-4.33
-2.67
-4.0
7.33
-6.0
1.33
5.33
1.0
-0.67
0.67
-2.0
-4.33
-2.67
-1.67
13.0
6.67
-1.0
1.33
-1.33
-3.33
4.0
0.67
0.33
-4.0
4.0
-2.33
5.0
0.0
3.33
5.0
7.0
-6.33
-2.33
-2.0
-4.0
1.0