File: EDX Back Ups and Old Files/Spectra copy 3.3.23/Samples/Low pH SF 25C 2d/7.25.txt
0.0
-62.67
46.33
-0.67
-0.67
0.0
-0.67
-0.33
1.0
0.0
1.0
0.33
-1.0
1.67
2.33
1.67
2.67
-2.0
4.33
-2.33
2.33
5.33
7.67
8.67
6.33
2.33
1.67
2.0
8.0
7.0
9.0
0.67
0.33
5.0
1.67
5.0
5.67
-0.33
7.0
8.0
-1.0
1.0
-3.33
0.33
-1.0
4.67
11.67
5.33
0.33
3.33
-3.67
6.0
3.67
-2.33
1.33
0.67
-0.33
2.0
1.0
1.33
-4.0
-2.33
-1.67
-2.0
2.0
4.0
5.0
2.33
1.67
0.0
4.33
6.33
-2.67
-2.67
-0.67
3.0
0.67
8.67
7.33
2.0
9.0
1.0
2.0
6.33
4.33
2.67
-7.0
2.0
0.33
1.67
-1.33
-2.33
-2.0
0.67
2.0
4.33
0.33
3.33
2.33
-0.67
-2.0
-2.0
0.67
0.67
0.67
3.33
-6.0
-0.33
4.0
8.67
-0.33
0.33
2.67
0.0
2.67
4.0
-2.0
0.0
0.67
-3.33
1.67
2.67
12.0
11.33
3.33
8.33
9.67
7.67
14.67
10.0
6.0
3.67
9.0
10.0
20.67
11.33
20.33
24.67
3.67
-0.67
12.0
9.67
13.0
14.0
1.33
14.0
10.33
14.67
13.0
41.0
38.33
41.33
45.67
50.0
27.0
23.33
21.33
33.0
19.0
9.0
12.0
3.67
11.0
7.67
19.33
24.67
11.0
9.0
36.0
71.33
100.33
105.67
46.33
32.33
27.0
11.67
39.0
60.0
69.0
72.0
70.0
25.33
28.67
24.67
4.67
7.67
13.67
24.33
11.67
34.33
18.33
28.67
17.33
22.33
15.0
9.0
18.67
6.33
13.67
-0.67
4.33
14.33
8.0
8.0
7.33
1.33
12.67
18.67
11.0
5.67
4.67
5.67
3.67
10.0
4.33
9.0
8.67
9.67
-6.33
9.33
8.67
8.67
6.67
1.67
20.0
15.67
0.33
9.67
12.33
9.33
5.0
12.33
-4.67
20.33
11.0
4.33
20.0
-3.67
9.33
5.33
3.33
3.0
5.33
7.33
10.0
5.33
14.0
-1.33
-8.33
6.67
-5.0
8.0
0.33
1.0
5.33
-1.0
8.33
6.33
2.67
-0.67
0.0
0.33
3.0
13.33
2.33
3.0
-1.67
11.67
-3.0
-3.33
-2.67
1.33
9.0
5.67
3.0
7.33
-4.33
2.67
2.0
0.67
0.33
2.0
3.0
0.67
4.0
4.0
-1.67
3.0
3.0
2.67
-0.33
-2.0
2.0
2.0