File: EDX Back Ups and Old Files/Spectra copy 3.3.23/Samples/Low pH SF 25C 2d/7.75.txt
0.0
-56.67
17.33
17.33
3.33
-2.0
1.33
-0.33
0.0
0.0
0.0
0.33
-1.0
-0.33
0.33
0.67
1.67
1.0
1.33
-3.33
2.33
9.33
4.67
3.67
3.33
0.33
3.67
4.0
0.0
6.0
1.0
6.67
4.33
-2.0
-3.33
-1.0
7.67
0.67
5.0
5.0
4.0
3.0
-1.33
-0.67
4.0
8.67
5.67
1.33
9.33
1.33
5.33
7.0
5.67
-1.33
3.33
6.67
-0.33
1.0
0.0
-0.67
-1.0
9.67
3.33
-1.0
3.0
1.0
2.0
0.33
3.67
7.0
4.33
8.33
2.33
0.33
1.33
0.0
1.67
8.67
5.33
0.0
0.0
0.0
0.0
6.33
1.33
-1.33
0.0
3.0
-2.67
4.67
0.67
-1.33
1.0
0.67
2.0
-0.67
4.33
-2.67
5.33
-1.67
0.0
-2.0
1.67
6.67
0.67
0.33
1.0
-0.33
0.0
2.67
-7.33
7.33
6.67
3.0
5.67
1.0
-1.0
6.0
2.67
-6.33
1.67
7.67
-3.0
7.33
4.33
1.33
6.67
0.67
12.67
7.0
0.0
3.67
9.0
3.0
17.67
14.33
4.33
10.67
6.67
6.33
8.0
31.67
9.0
10.0
12.33
4.0
12.33
11.67
17.0
14.0
29.33
27.33
40.67
38.0
27.0
36.33
20.33
29.0
29.0
20.0
7.0
22.67
14.0
13.67
29.33
24.67
12.0
16.0
20.0
20.33
44.33
56.67
35.33
39.33
31.0
14.67
31.0
50.0
67.0
67.0
51.0
29.33
23.67
11.67
1.67
6.67
11.67
9.33
17.67
22.33
22.33
40.67
28.33
20.33
19.0
13.0
15.67
5.33
-1.33
9.33
-3.67
3.33
4.0
22.0
16.33
12.33
11.67
11.67
-1.0
4.67
16.67
1.67
12.67
10.0
7.33
8.0
0.67
5.67
13.67
5.33
10.67
12.67
3.67
-3.33
15.0
8.67
11.33
15.67
13.33
4.33
4.0
4.33
4.33
6.33
3.0
11.33
6.0
5.33
3.33
4.33
9.33
1.0
-0.67
3.33
1.0
12.33
4.0
6.67
-1.33
-1.33
2.0
8.0
4.33
8.0
-2.67
0.0
3.33
9.33
-3.33
-1.67
1.0
16.33
7.0
11.33
13.33
-2.0
3.33
-2.33
-1.0
-4.33
-4.67
-3.67
8.0
3.67
0.0
0.33
-2.33
0.67
7.0
12.67
4.33
3.0
9.0
0.67
6.0
5.0
0.33
1.0
2.0
2.67
-0.33
0.0
-5.0
8.0