File: EDX Back Ups and Old Files/Spectra copy 3.3.23/Samples/Low pH SF 25C 2d/8.25.txt
0.0
-111.67
37.33
-25.67
5.33
-2.0
1.33
0.67
1.0
0.0
0.0
0.33
0.0
0.67
0.33
-1.33
4.67
2.0
3.33
-2.33
8.33
7.33
0.67
5.67
3.33
4.33
5.67
-2.0
11.0
3.0
5.0
2.67
2.33
1.0
2.67
2.0
-2.33
0.67
1.0
3.0
5.0
-3.0
6.67
-1.67
4.0
3.67
7.67
4.33
-3.67
4.33
-2.67
4.0
6.67
2.67
4.33
1.67
2.67
0.0
1.0
1.33
-4.0
2.67
-4.67
3.0
6.0
5.0
3.0
-1.67
-1.33
4.0
0.33
0.33
1.33
0.33
4.33
1.0
1.67
2.67
1.33
3.0
-5.0
4.0
-1.0
1.33
0.33
-5.33
-2.0
0.0
0.33
2.67
-2.33
-0.33
-1.0
1.67
2.0
3.33
0.33
2.33
0.33
2.33
1.0
3.0
1.67
-1.33
-0.33
3.33
2.0
2.67
1.0
-2.33
-0.33
7.33
2.67
2.0
0.67
4.0
3.0
-1.0
1.67
-2.33
-1.33
8.67
3.0
-1.67
3.33
2.33
0.67
3.67
6.67
6.0
1.0
8.67
3.0
5.0
15.67
29.33
16.33
7.67
15.67
3.33
14.0
10.67
19.0
7.0
11.33
13.0
22.33
13.67
11.0
7.0
16.33
18.33
15.67
20.0
14.0
22.33
15.33
20.0
18.0
15.0
5.0
12.67
10.0
43.67
41.33
25.67
3.0
7.0
10.0
20.33
22.33
46.67
48.33
42.33
14.0
2.67
39.0
46.0
73.0
74.0
61.0
21.33
11.67
7.67
2.67
2.67
10.67
12.33
20.67
21.33
12.33
25.67
10.33
18.33
27.0
22.0
28.67
23.33
9.67
7.33
7.33
8.33
22.0
9.0
6.33
13.33
9.67
12.67
7.0
7.67
9.67
5.67
1.67
11.0
-1.67
14.0
3.67
-0.33
17.67
12.33
19.67
9.67
6.67
2.67
10.0
14.67
11.33
10.67
13.33
0.33
1.0
17.33
-3.67
12.33
15.0
3.33
1.0
1.33
3.33
-5.67
6.33
12.0
7.33
3.33
5.0
6.33
1.0
10.67
7.67
10.67
3.0
-2.0
10.33
6.0
2.33
8.0
-0.67
8.33
5.67
-2.67
-4.0
7.33
4.0
1.33
5.33
-2.0
0.33
4.67
-2.0
-1.33
-2.67
-2.67
9.0
5.67
4.0
6.33
-1.33
4.67
5.0
3.67
2.33
10.0
6.0
0.67
4.0
4.0
-3.67
5.0
4.0
8.67
1.67
0.0
-4.0
-2.0