File: EDX Back Ups and Old Files/Spectra copy 3.3.23/Samples/Low pH SF 25C 2d/8.5.txt
0.0
-140.67
-7.67
11.33
9.33
0.0
-0.67
-0.33
1.0
0.0
1.0
0.33
-1.0
-0.33
-0.67
-0.33
1.67
1.0
1.33
-0.33
4.33
1.33
3.67
1.67
6.33
1.33
-5.33
0.0
8.0
11.0
5.0
2.67
8.33
2.0
-2.33
9.0
2.67
1.67
2.0
7.0
0.0
5.0
1.67
-5.67
1.0
2.67
3.67
-1.67
4.33
3.33
-2.67
3.0
2.67
2.67
-2.67
3.67
-0.33
7.0
-1.0
-0.67
-2.0
5.67
-0.67
3.0
5.0
1.0
0.0
-0.67
-1.33
1.0
2.33
0.33
-0.67
-2.67
0.33
1.0
-3.33
2.67
3.33
3.0
-2.0
-4.0
0.0
-1.67
-0.67
1.67
-2.0
4.0
0.33
5.67
2.67
-1.33
-1.0
1.67
1.0
3.33
-0.67
-1.67
2.33
2.33
2.0
-2.0
2.67
2.67
1.67
0.33
1.0
-1.33
-1.0
-0.33
0.67
-0.67
4.67
1.0
7.67
17.0
6.0
-1.0
5.67
-0.33
4.67
4.67
-1.0
7.33
1.33
6.33
11.67
8.67
4.67
4.0
4.0
3.67
11.0
6.0
21.67
18.33
6.33
13.67
6.67
3.33
12.0
21.67
9.0
5.0
2.33
6.0
8.33
11.67
17.0
6.0
12.33
22.33
24.67
16.0
5.0
14.33
15.33
16.0
20.0
12.0
11.0
14.67
8.0
25.67
56.33
11.67
4.0
1.0
22.0
50.33
55.33
55.67
38.33
28.33
28.0
32.67
45.0
44.0
53.0
67.0
44.0
21.33
21.67
4.67
-4.33
12.67
7.67
15.33
23.67
20.33
8.33
29.67
5.33
22.33
44.0
28.0
3.67
5.33
-1.33
7.33
1.33
1.33
14.0
1.0
10.33
3.33
14.67
-0.33
11.0
15.67
13.67
6.67
-9.33
14.0
-1.67
11.0
15.67
2.67
8.67
15.33
17.67
9.67
24.67
12.67
8.0
8.67
10.33
7.67
12.33
0.33
20.0
7.33
3.33
10.33
9.0
-3.67
8.0
4.33
12.33
3.33
-6.67
4.0
2.33
2.33
3.0
-2.67
12.0
-3.33
-1.33
6.67
1.0
3.0
-6.67
4.0
11.33
4.0
14.33
1.33
2.67
-3.67
0.0
-0.67
4.0
4.33
4.33
1.0
2.33
-1.33
-3.0
-0.33
-0.67
4.33
4.0
4.67
-1.0
2.33
7.67
4.67
2.0
-0.33
0.33
5.0
2.0
-1.33
1.0
2.0
7.33
-2.0
2.0
0.67
-2.33
-2.0
-6.0
-3.0