File: EDX Back Ups and Old Files/Spectra copy 3.3.23/Samples/Low pH SF 25C 2d/9.0.txt
0.0
-26.67
-35.67
12.33
8.33
-1.0
1.33
0.67
0.0
1.0
3.0
0.33
-1.0
-0.33
0.33
1.67
2.67
1.0
1.33
-0.33
2.33
5.33
6.67
-0.33
2.33
0.33
-0.33
2.0
2.0
7.0
4.0
-2.33
2.33
-1.0
1.67
7.0
1.67
0.67
6.0
2.0
1.0
2.0
-2.33
6.33
4.0
4.67
7.67
1.33
3.33
3.33
1.33
5.0
1.67
0.67
1.33
2.67
3.67
-4.0
-1.0
2.33
-4.0
2.67
0.33
-3.0
3.0
4.0
4.0
1.33
-0.33
0.0
-0.67
-0.67
0.33
3.33
3.33
8.0
-0.33
5.67
4.33
2.0
4.0
-2.0
1.0
3.33
-2.67
-1.33
-1.0
4.0
-1.67
2.67
1.67
-1.33
5.0
-1.33
-2.0
2.33
6.33
-5.67
2.33
-1.67
0.0
2.0
7.67
-1.33
2.67
11.33
0.0
3.67
5.0
-3.33
4.67
3.33
2.67
3.0
-0.33
-1.0
2.0
10.0
3.67
-2.33
2.67
-0.33
6.0
10.33
11.33
3.33
3.67
2.67
13.67
10.0
3.0
10.67
10.0
20.0
67.67
48.33
17.33
19.67
5.67
7.33
14.0
17.67
14.0
15.0
7.33
10.0
8.33
13.67
14.0
16.0
27.33
40.33
48.67
46.0
27.0
22.33
18.33
15.0
15.0
11.0
5.0
11.67
11.0
37.67
52.33
25.67
6.0
11.0
35.0
50.33
56.33
54.67
30.33
16.33
23.0
17.67
29.0
43.0
33.0
62.0
22.0
23.33
16.67
6.67
-3.33
6.67
14.67
9.33
8.67
13.33
36.33
22.67
19.33
21.33
31.0
34.0
26.67
17.33
12.67
13.33
11.33
11.33
8.0
0.0
11.33
2.33
7.67
6.67
6.0
-1.33
9.67
-4.33
-1.33
6.0
4.33
8.0
-3.33
16.67
-1.33
20.33
12.67
8.67
10.67
12.67
30.0
18.67
8.33
-0.33
8.33
4.33
15.0
22.33
7.33
3.33
1.0
7.33
17.0
4.33
6.33
-3.67
-5.67
17.0
3.33
0.33
-1.0
-0.67
-5.0
5.67
2.67
14.67
6.0
6.0
0.33
4.0
6.33
-4.0
4.33
1.33
2.67
4.33
4.0
8.33
4.0
-0.67
5.33
-5.0
1.33
-0.33
1.0
-0.33
-4.67
5.33
6.0
5.67
-5.0
10.33
2.67
0.67
11.0
-2.33
2.33
7.0
6.0
-2.33
3.0
-1.0
-3.67
2.0
0.0
-2.33
0.67
0.0
3.0
1.0