File: EDX Back Ups and Old Files/Spectra copy 3.3.23/Samples/Low pH SF 25C 2d/9.25.txt
0.0
-96.67
-19.67
-17.67
1.33
-3.0
-0.67
-0.33
0.0
0.0
0.0
-0.67
-1.0
-0.33
0.33
-0.33
2.67
1.0
3.33
-3.33
2.33
6.33
4.67
3.67
1.33
5.33
1.67
-2.0
4.0
3.0
7.0
-8.33
7.33
4.0
2.67
7.0
7.67
-0.33
-4.0
1.0
0.0
10.0
3.67
-3.67
-2.0
-1.33
4.67
1.33
1.33
3.33
2.33
4.0
0.67
-0.33
-1.67
4.67
2.67
3.0
-2.0
6.33
-2.0
5.67
0.33
-2.0
1.0
7.0
1.0
2.33
-3.33
0.0
0.33
-0.67
-1.67
-2.67
2.33
2.0
-0.33
2.67
5.33
-1.0
-4.0
1.0
0.0
-0.67
1.33
-1.33
0.0
5.0
-1.67
6.67
0.67
-1.33
2.0
-1.33
-2.0
2.33
2.33
1.33
-1.67
0.33
5.0
0.0
5.67
4.67
-0.33
2.33
0.0
7.67
3.0
0.67
4.67
8.33
-2.33
5.0
0.67
1.0
2.0
1.0
8.67
3.67
0.67
5.67
-1.0
0.33
-1.67
1.33
5.67
4.67
11.67
2.0
9.0
5.67
13.0
29.0
69.67
58.33
21.33
15.67
-2.33
9.33
18.0
15.67
15.0
14.0
11.33
10.0
-0.67
9.67
15.0
17.0
33.33
48.33
53.67
38.0
16.0
43.33
36.33
26.0
7.0
15.0
3.0
7.67
18.0
24.67
26.33
29.67
8.0
11.0
24.0
50.33
89.33
83.67
48.33
28.33
16.0
12.67
34.0
34.0
49.0
45.0
45.0
28.33
19.67
12.67
0.67
11.67
7.67
11.33
23.67
16.33
21.33
33.67
24.33
13.33
25.0
21.0
33.67
29.33
8.67
6.33
2.33
11.33
16.0
5.0
8.33
9.33
2.67
-5.33
4.0
15.67
1.67
3.67
3.67
3.0
5.33
5.0
15.67
8.67
4.67
12.33
4.67
9.67
5.67
11.67
24.0
9.67
14.33
0.67
11.33
6.33
5.0
22.33
11.33
8.33
8.0
11.33
4.0
3.33
3.33
8.33
-4.67
13.0
6.33
6.33
-4.0
2.33
3.0
-1.33
5.67
1.67
-5.0
8.0
8.33
0.0
12.33
-8.0
3.33
14.33
-1.33
-0.67
6.0
10.33
-2.0
-4.67
2.33
7.0
4.33
3.67
6.0
-3.33
-2.67
1.33
5.0
6.67
9.0
0.33
2.67
0.67
-4.0
1.67
1.33
3.0
2.0
0.67
4.0
0.0
-1.67
-3.0
-2.0
1.67
-0.33
0.0
-1.0
3.0