File: EDX Back Ups and Old Files/Spectra copy 3.3.23/Samples/Low pH SF 25C 2d/9.5.txt
0.0
-115.67
73.33
-23.67
-1.67
2.0
-0.67
0.67
0.0
0.0
0.0
0.33
-1.0
-0.33
0.33
1.67
2.67
0.0
2.33
-2.33
3.33
3.33
2.67
3.67
9.33
6.33
-4.33
1.0
6.0
0.0
7.0
-0.33
6.33
2.0
-2.33
2.0
3.67
-0.33
1.0
1.0
6.0
3.0
2.67
2.33
1.0
-3.33
2.67
-2.67
-2.67
-0.67
7.33
0.0
-2.33
-2.33
5.33
4.67
-2.33
3.0
-1.0
1.33
-4.0
0.67
0.33
4.0
3.0
-1.0
0.0
2.33
-6.33
-2.0
-1.67
1.33
-1.67
-2.67
1.33
0.0
-2.33
0.67
4.33
-2.0
-1.0
4.0
0.0
4.33
4.33
1.67
-4.0
1.0
2.33
0.67
-0.33
-3.33
2.0
0.67
1.0
3.33
6.33
0.33
4.33
0.33
3.0
0.0
6.67
0.67
-1.33
0.33
-2.0
0.67
-2.0
2.67
-4.33
0.33
-1.33
4.0
-0.33
16.0
4.0
6.0
1.67
6.67
-3.33
2.67
-5.0
0.33
8.33
2.33
8.67
-0.33
8.67
4.0
10.0
1.67
14.0
15.0
29.67
17.33
5.33
10.67
7.67
17.33
23.0
29.67
19.0
13.0
12.33
16.0
13.33
12.67
24.0
10.0
25.33
49.33
40.67
39.0
47.0
63.33
37.33
28.0
14.0
8.0
6.0
16.67
17.0
9.67
21.33
21.67
11.0
15.0
37.0
42.33
71.33
42.67
34.33
26.33
10.0
8.67
38.0
37.0
51.0
37.0
41.0
25.33
17.67
11.67
5.67
8.67
7.67
13.33
24.67
18.33
31.33
37.67
9.33
27.33
21.0
14.0
28.67
9.33
12.67
3.33
12.33
11.33
11.0
14.0
7.33
8.33
20.67
3.67
18.0
9.67
28.67
8.67
6.67
9.0
1.33
13.0
10.67
-0.33
15.67
6.33
24.67
14.67
23.67
1.67
17.0
13.67
1.33
-1.33
-2.67
4.33
10.0
1.33
1.33
8.33
12.0
7.33
7.0
1.33
2.33
4.33
4.33
2.0
-3.67
11.33
5.0
-0.67
4.0
-12.33
3.67
4.67
1.0
10.0
12.33
5.0
8.33
-5.0
5.33
0.33
1.67
0.33
2.0
3.33
0.0
11.33
0.33
-4.0
13.33
-1.33
2.0
-7.33
4.33
0.33
7.0
8.67
-1.0
7.33
6.67
1.67
3.0
1.67
2.33
1.0
0.0
1.67
1.0
3.0
-1.67
-1.0
0.0
3.67
0.67
2.0
-3.0
4.0