File: EDX Back Ups and Old Files/Spectra copy 3.3.23/Samples/High pH BL 60C 2d/10.0.txt
0.0
40.33
41.0
-15.0
13.67
2.33
0.67
-0.67
1.67
-0.33
-0.33
0.0
1.67
-0.67
-1.0
-1.0
2.33
2.33
5.67
-2.67
3.0
-1.67
7.67
6.67
-3.33
1.67
-1.67
2.33
4.33
4.33
-2.0
-4.67
5.0
5.67
5.0
-3.0
6.33
5.0
0.67
3.33
5.67
-2.0
2.33
2.67
10.0
-5.33
6.33
0.0
2.67
-5.33
0.0
7.67
4.67
0.33
8.33
1.67
-2.0
-4.0
5.33
3.67
6.33
-3.67
1.67
-1.0
-1.0
-3.0
2.67
-3.33
3.33
-4.33
-1.67
3.33
1.0
0.0
3.0
0.33
-1.33
0.33
0.0
-2.33
3.33
0.67
1.67
0.0
1.67
-3.67
1.33
2.0
0.67
0.33
0.67
2.0
5.67
0.33
0.33
2.0
2.0
-6.0
0.33
1.67
0.67
2.0
-1.33
6.0
5.67
3.0
2.67
-4.33
4.67
-1.33
0.0
4.0
2.33
-2.0
0.0
11.0
4.67
6.33
-1.0
2.0
13.67
3.33
1.33
0.33
7.67
4.0
1.0
6.67
1.67
4.0
4.0
3.33
8.0
-1.33
5.67
5.33
5.0
8.0
8.0
1.33
9.67
6.67
13.67
8.33
8.67
7.33
12.67
21.33
34.33
24.67
9.0
3.67
7.33
5.33
5.67
8.0
6.0
7.67
12.33
10.33
10.0
3.67
-2.0
4.0
8.67
1.0
6.67
8.0
11.0
-9.0
14.33
4.67
8.67
8.33
2.0
5.0
20.67
5.0
12.0
4.67
18.67
20.67
4.33
22.33
17.67
43.67
77.0
138.67
173.33
125.33
65.33
19.67
17.67
9.67
6.33
18.67
4.33
20.0
10.0
10.67
8.33
9.33
12.0
9.0
8.0
1.0
14.0
10.0
18.33
10.67
14.0
7.0
9.67
14.0
10.0
0.67
1.67
13.67
4.67
13.67
5.33
-8.0
0.67
3.0
2.33
10.67
2.0
4.0
15.67
19.67
0.67
0.0
4.67
16.33
-6.67
4.33
0.0
-5.0
8.67
7.33
9.33
6.67
7.67
0.0
10.67
8.33
7.0
7.0
15.67
15.33
4.0
16.67
9.33
-3.67
3.0
2.67
0.67
-2.33
5.67
11.67
3.67
8.67
5.33
7.33
3.33
-2.33
0.0
2.67
-0.33
2.33
4.67
7.67
6.33
-4.0
1.33
-3.0
-5.33
4.67
-1.33
7.33
2.67
-3.0
-2.33
2.33
1.67
-8.0
-1.0
-3.33
-4.33
-1.0
-6.67
-0.67
4.33
4.33