File: EDX Back Ups and Old Files/Spectra copy 3.3.23/Samples/High pH BL 60C 2d/10.25.txt
0.0
69.33
-8.0
-27.0
1.67
0.33
0.67
-0.67
-0.33
-0.33
-0.33
0.0
-0.33
-0.67
0.0
-1.0
0.33
-0.67
0.67
0.33
-1.0
8.33
6.67
1.67
-5.33
0.67
-5.67
-1.67
1.33
3.33
1.0
2.33
0.0
4.67
4.0
5.0
8.33
3.0
9.67
-0.67
3.67
0.0
6.33
2.67
5.0
0.67
-3.67
-1.0
7.67
1.67
6.0
3.67
-0.33
2.33
-1.67
-1.33
10.0
-3.0
0.33
4.67
-1.67
4.33
-1.33
-2.0
2.0
-3.0
4.67
0.67
2.33
5.67
-0.67
1.33
-5.0
3.0
1.0
7.33
-3.33
3.33
-2.0
-2.33
2.33
3.67
0.67
7.0
2.67
-3.67
-1.67
-4.0
2.67
-1.67
2.67
-2.0
-0.33
-2.67
-4.67
-1.0
1.0
-5.0
0.33
1.67
5.67
2.0
-2.33
-1.0
4.67
0.0
-0.33
-0.33
5.67
0.67
-3.0
3.0
4.33
1.0
8.0
5.0
3.67
11.33
6.0
2.0
8.67
17.33
-2.67
0.33
4.67
4.0
-2.0
8.67
7.67
12.0
3.0
15.33
1.0
4.67
7.67
6.33
4.0
3.0
20.0
0.33
17.67
7.67
2.67
6.33
8.67
12.33
12.67
24.33
30.33
26.67
16.0
0.67
14.33
5.33
4.67
4.0
12.0
10.67
17.33
9.33
10.0
2.67
-2.0
0.0
14.67
2.0
9.67
7.0
8.0
13.0
6.33
15.67
-1.33
16.33
6.0
15.0
-0.33
10.0
21.0
17.67
13.67
8.67
10.33
7.33
22.67
35.67
85.0
158.67
190.33
159.33
76.33
18.67
16.67
4.67
16.33
-5.33
10.33
-5.0
14.0
14.67
0.33
16.33
12.0
10.0
3.0
4.0
7.0
14.0
7.33
1.67
12.0
0.0
-2.33
8.0
6.0
16.67
4.67
-1.33
15.67
-1.33
1.33
-2.0
-7.33
11.0
9.33
8.67
8.0
5.0
10.67
4.67
15.67
13.0
1.67
6.33
-9.67
4.33
8.0
6.0
11.67
-1.67
7.33
5.67
9.67
-4.0
14.67
7.33
2.0
2.0
3.67
11.33
13.0
3.67
9.33
-12.67
1.0
-1.33
-4.33
-3.33
7.67
3.67
-1.33
2.67
1.33
2.33
-5.67
-4.33
-1.0
5.67
1.67
6.33
-4.33
2.67
7.33
1.0
1.33
8.0
-0.33
6.67
-1.33
-0.67
3.67
-6.0
2.67
9.33
4.67
-2.0
-1.0
1.67
0.67
-3.0
0.33
11.33
-0.67
-3.67