File: EDX Back Ups and Old Files/Spectra copy 3.3.23/Samples/High pH BL 60C 2d/11.75.txt
0.0
5.33
-58.0
-15.0
-3.33
0.33
-0.33
-0.67
-0.33
-0.33
-0.33
1.0
-0.33
2.33
1.0
-2.0
1.33
-1.67
1.67
-0.67
-2.0
7.33
-1.33
-0.33
-2.33
2.67
2.33
-0.67
6.33
2.33
-1.0
2.33
-1.0
3.67
0.0
-4.0
3.33
-2.0
2.67
5.33
4.67
-6.0
4.33
0.67
3.0
-1.33
4.33
0.0
2.67
1.67
-1.0
-0.33
3.67
-1.67
3.33
-2.33
4.0
-6.0
-1.67
6.67
5.33
2.33
-3.33
6.0
0.0
-6.0
6.67
-2.33
3.33
1.67
0.33
0.33
-4.0
0.0
0.0
0.33
1.67
1.33
1.0
-0.33
0.33
-3.33
0.67
1.0
-2.33
-1.67
2.33
-1.0
0.67
-0.67
-1.33
-2.0
-0.33
-1.67
-0.67
4.0
1.0
-2.0
-4.67
0.67
7.67
7.0
-1.33
-2.0
4.67
-1.0
-0.33
-1.33
10.67
-0.33
-5.0
-8.0
12.33
0.0
-2.0
1.0
1.67
2.33
3.0
6.0
-3.33
4.33
-2.67
1.33
8.67
6.0
2.0
3.67
3.67
3.0
3.0
7.33
7.0
7.67
4.67
8.33
11.0
3.0
0.0
8.33
0.67
1.67
9.67
1.33
6.67
14.33
26.67
19.33
47.33
24.67
18.0
14.67
6.33
15.33
4.67
0.0
-3.0
4.67
20.33
15.33
3.0
7.67
3.0
0.0
4.67
15.0
7.67
3.0
4.0
-1.0
-0.67
7.67
12.67
11.33
8.0
11.0
6.67
7.0
14.0
8.67
19.67
18.67
7.33
6.33
30.67
53.67
119.0
194.67
273.33
205.33
94.33
24.67
22.67
4.67
24.33
7.67
4.33
-4.0
10.0
7.67
9.33
19.33
6.0
9.0
12.0
7.0
12.0
7.0
4.33
15.67
12.0
2.0
4.67
5.0
9.0
22.67
10.67
7.67
12.67
-0.33
-1.67
-3.0
-1.33
-2.0
13.33
6.67
0.0
1.0
4.67
16.67
16.67
10.0
-1.33
4.33
8.33
9.33
3.0
-9.0
5.67
5.33
2.33
13.67
13.67
-8.0
16.67
7.33
1.0
3.0
5.67
5.33
7.0
0.67
2.33
-11.67
1.0
1.67
-3.33
-8.33
-1.33
2.67
-4.33
3.67
7.33
4.33
-4.67
-2.33
3.0
2.67
-3.33
7.33
-3.33
2.67
10.33
2.0
1.33
3.0
-3.33
-3.33
0.67
4.33
0.67
-2.0
2.67
0.33
0.67
-8.0
-3.0
-2.33
2.67
-2.0
-1.67
-1.67
1.33
-1.67