File: EDX Back Ups and Old Files/Spectra copy 3.3.23/Samples/High pH BL 60C 2d/6.75.txt
0.0
2.33
12.0
-1.0
-6.33
3.33
1.67
0.33
-0.33
1.67
-0.33
1.0
-0.33
0.33
1.0
0.0
0.33
0.33
-0.33
5.33
3.0
11.33
-0.33
-4.33
0.67
9.67
1.33
1.33
3.33
6.33
4.0
-1.67
2.0
3.67
2.0
6.0
6.33
4.0
8.67
1.33
3.67
-1.0
3.33
3.67
2.0
-2.33
4.33
7.0
-3.33
-3.33
4.0
5.67
7.67
-2.67
3.33
1.67
3.0
0.0
-0.67
3.67
2.33
4.33
4.67
4.0
-2.0
0.0
-0.33
5.67
3.33
6.67
4.33
2.33
2.0
4.0
6.0
2.33
-0.33
-0.67
1.0
-0.33
4.33
3.67
2.67
5.0
0.67
-2.67
2.33
2.0
3.67
-2.67
-0.33
0.0
0.67
1.33
2.33
-2.0
-2.0
-4.0
3.33
-0.33
9.67
-1.0
0.67
2.0
4.67
0.0
1.67
2.67
1.67
-2.33
-2.0
0.0
5.33
4.0
6.0
11.0
19.67
27.33
11.0
2.0
7.67
15.33
-1.67
9.33
4.67
2.0
-1.0
3.67
1.67
7.0
3.0
4.33
13.0
12.67
0.67
-0.67
3.0
-2.0
2.0
-1.67
6.67
-0.33
2.67
10.33
2.67
16.33
11.67
17.33
16.33
7.67
0.0
9.67
12.33
1.33
14.67
0.0
9.0
9.67
11.33
6.33
4.0
8.67
7.0
17.0
10.67
10.0
4.67
13.0
13.0
18.0
7.33
6.67
10.67
8.33
7.0
-2.0
9.67
3.0
5.0
17.67
19.67
15.67
8.33
17.33
17.67
24.67
45.0
84.67
77.33
76.33
40.33
20.67
11.67
7.67
10.33
2.67
7.33
4.0
9.0
4.67
16.33
4.33
17.0
15.0
17.0
16.0
15.0
9.0
3.33
5.67
18.0
20.0
15.67
4.0
15.0
15.67
9.67
17.67
23.67
26.67
-2.67
1.0
6.67
9.0
6.33
-0.33
7.0
10.0
10.67
5.67
6.67
5.0
4.67
14.33
10.33
-1.67
-4.0
4.0
1.67
-3.67
2.33
3.67
6.67
0.0
8.67
10.33
8.0
0.0
-0.33
2.33
12.0
2.67
5.33
-2.67
-3.0
0.67
-2.33
2.67
6.67
2.67
-1.33
2.67
8.33
5.33
-8.67
-6.33
-3.0
2.67
0.67
1.33
5.67
8.67
1.33
5.0
6.33
-2.0
2.67
2.67
1.67
3.33
8.67
-2.0
1.67
3.33
4.67
2.0
4.0
8.67
-0.33
-3.0
0.33
-0.67
1.33
7.33