File: EDX Back Ups and Old Files/Spectra copy 3.3.23/Samples/High pH BL 60C 2d/7.0.txt
0.0
143.33
4.0
-26.0
-1.33
3.33
1.67
-0.67
-0.33
-0.33
-0.33
1.0
-0.33
-0.67
-1.0
-2.0
-1.67
1.33
0.67
-1.67
7.0
1.33
1.67
-0.33
1.67
4.67
-1.67
6.33
12.33
7.33
-2.0
5.33
9.0
0.67
0.0
-4.0
1.33
2.0
4.67
-5.67
13.67
2.0
11.33
-1.33
2.0
-2.33
5.33
6.0
10.67
2.67
1.0
8.67
0.67
0.33
1.33
0.67
-4.0
-4.0
0.33
-4.33
-0.67
5.33
3.67
-2.0
2.0
-7.0
2.67
1.67
4.33
0.67
-0.67
1.33
-5.0
0.0
-1.0
1.33
-1.33
4.33
4.0
4.67
1.33
1.67
-1.33
0.0
4.67
-4.67
5.33
-5.0
2.67
-3.67
1.67
0.0
-4.33
-1.67
2.33
1.0
-1.0
-3.0
-1.67
-1.33
2.67
6.0
0.67
1.0
0.67
-2.0
0.67
1.67
-0.33
2.67
0.0
4.0
-0.67
6.0
15.0
16.0
15.67
7.33
16.0
-2.0
4.67
9.33
1.33
-1.67
5.67
3.0
4.0
5.67
0.67
0.0
15.0
7.33
13.0
7.67
4.67
7.33
12.0
0.0
3.0
9.33
1.67
5.67
6.67
7.33
2.67
2.33
9.67
6.33
11.33
19.67
8.0
4.67
7.33
6.33
10.67
10.0
5.0
5.67
11.33
11.33
9.0
7.67
8.0
18.0
11.67
11.0
0.67
4.0
8.0
14.0
-3.67
4.67
8.67
5.33
7.0
-2.0
13.67
4.0
6.0
10.67
17.67
12.67
17.33
21.33
20.67
22.67
45.0
86.67
90.33
70.33
42.33
17.67
7.67
2.67
12.33
8.67
12.33
-1.0
-1.0
12.67
3.33
15.33
5.0
10.0
14.0
9.0
22.0
19.0
10.33
11.67
0.0
15.0
6.67
3.0
19.0
17.67
29.67
36.67
28.67
13.67
0.33
11.0
2.67
12.0
14.33
6.67
21.0
5.0
15.67
9.67
17.67
8.0
5.67
8.33
8.33
-1.67
10.0
-16.0
5.67
-4.67
8.33
3.67
5.67
-3.0
-1.33
4.33
16.0
5.0
-5.33
4.33
10.0
10.67
4.33
-4.67
5.0
8.67
-7.33
-3.33
3.67
6.67
4.67
4.67
9.33
5.33
0.33
-3.33
-2.0
-3.33
3.67
2.33
5.67
-1.33
6.33
-2.0
7.33
3.0
2.67
-1.33
4.67
2.33
-0.33
-7.0
-0.33
4.33
4.67
-1.0
4.0
3.67
2.67
-1.0
3.33
6.33
2.33
2.33