File: EDX Back Ups and Old Files/Spectra copy 3.3.23/Samples/High pH BL 60C 2d/8.5.txt
0.0
59.33
-14.0
-31.0
4.67
2.33
-0.33
-0.67
-0.33
0.67
-0.33
1.0
1.67
0.33
0.0
2.0
2.33
0.33
-2.33
0.33
2.0
3.33
-2.33
2.67
1.67
3.67
-2.67
1.33
9.33
7.33
2.0
-1.67
-4.0
0.67
-2.0
6.0
9.33
6.0
1.67
-2.67
11.67
-2.0
1.33
-4.33
6.0
-7.33
2.33
-3.0
15.67
-0.33
3.0
0.67
10.67
-0.67
-1.67
0.67
0.0
2.0
0.33
-1.33
12.33
-4.67
0.67
2.0
-2.0
-2.0
1.67
5.67
-0.67
8.67
-1.67
-0.67
3.0
-2.0
2.0
2.33
-1.33
2.33
2.0
-2.33
-0.67
-1.33
3.67
2.0
-1.33
1.33
6.33
1.0
-1.33
4.33
-0.33
-2.0
-3.33
0.33
0.33
-2.0
2.0
2.0
-0.67
0.67
6.67
4.0
1.67
-1.0
2.67
2.0
-2.33
-2.33
-0.33
2.67
0.0
1.0
0.33
10.0
8.0
25.0
34.67
22.33
11.0
6.0
4.67
3.33
1.33
7.33
3.67
-2.0
5.0
2.67
4.67
7.0
4.0
6.33
15.0
-2.33
6.67
2.33
6.0
6.0
10.0
3.33
6.67
7.67
1.67
14.33
1.67
7.33
14.67
17.33
13.33
26.67
7.0
8.67
19.33
2.33
12.67
4.0
5.0
4.67
16.33
15.33
10.0
1.67
11.0
15.0
10.67
14.0
0.67
15.0
13.0
19.0
8.33
12.67
5.67
9.33
15.0
9.0
13.67
10.0
12.0
5.67
6.67
17.67
14.33
17.33
35.67
27.67
51.0
111.67
91.33
88.33
51.33
32.67
9.67
15.67
18.33
2.67
13.33
10.0
7.0
2.67
3.33
16.33
14.0
12.0
2.0
10.0
8.0
13.0
8.33
5.67
8.0
4.0
4.67
6.0
21.0
26.67
19.67
32.67
7.67
17.67
-0.67
6.0
5.67
11.0
3.33
13.67
-2.0
18.0
15.67
1.67
21.67
-2.0
-2.33
10.33
5.33
-1.67
5.0
3.0
3.67
7.33
4.33
3.67
12.67
0.0
2.67
9.33
2.0
-2.0
6.67
6.33
-1.0
14.67
15.33
0.33
-1.0
4.67
1.67
2.67
1.67
15.67
0.67
2.67
2.33
3.33
-1.67
-5.33
-1.0
5.67
-3.33
6.33
0.67
-0.33
5.33
6.0
-5.67
1.0
1.67
7.67
-4.33
2.33
3.67
-3.0
4.67
0.33
3.67
-4.0
3.0
-0.33
-0.33
0.0
-4.67
1.33
5.33
6.33