File: EDX Back Ups and Old Files/Spectra copy 3.3.23/Samples/High pH BL 60C 2d/9.5.txt
0.0
-11.67
-44.0
-30.0
-8.33
1.33
0.67
-0.67
-0.33
-0.33
-0.33
0.0
0.67
1.33
1.0
-1.0
1.33
-0.67
1.67
0.33
-2.0
6.33
3.67
5.67
-5.33
-3.33
-1.67
-0.67
1.33
2.33
6.0
0.33
-1.0
1.67
-2.0
1.0
0.33
10.0
1.67
0.33
6.67
2.0
2.33
6.67
9.0
-1.33
1.33
5.0
-0.33
-0.33
0.0
1.67
2.67
3.33
6.33
0.67
-1.0
0.0
2.33
3.67
1.33
5.33
-2.33
4.0
5.0
-3.0
8.67
4.67
-1.67
0.67
1.33
-0.67
-5.0
-1.0
4.0
3.33
-1.33
2.33
1.0
2.67
0.33
-0.33
3.67
1.0
-1.33
-1.67
-0.67
-1.0
4.67
5.33
-2.33
-2.0
-0.33
1.33
-1.67
2.0
0.0
3.0
0.33
1.67
7.67
3.0
2.67
7.0
6.67
2.0
-2.33
4.67
-3.33
0.67
-4.0
4.0
6.33
5.0
6.0
18.0
26.67
29.33
12.0
12.0
1.67
11.33
-1.67
1.33
-0.33
3.0
7.0
5.67
2.67
7.0
8.0
10.33
-1.0
0.67
-0.33
3.33
10.0
0.0
1.0
0.33
1.67
5.67
6.67
13.33
6.67
8.33
12.67
17.33
25.33
15.67
9.0
5.67
14.33
6.33
14.67
1.0
-1.0
6.67
5.33
12.33
12.0
3.67
9.0
3.0
4.67
9.0
11.67
7.0
12.0
2.0
13.33
5.67
7.67
10.33
6.0
4.0
5.67
4.0
11.0
13.67
10.67
11.67
15.33
25.33
19.67
30.67
55.0
94.67
135.33
119.33
59.33
11.67
19.67
14.67
11.33
14.67
4.33
14.0
0.0
15.67
8.33
6.33
13.0
2.0
15.0
8.0
18.0
9.0
10.33
15.67
-7.0
1.0
6.67
15.0
29.0
31.67
27.67
16.67
18.67
16.67
8.33
2.0
8.67
16.0
9.33
-9.33
19.0
13.0
1.67
19.67
13.67
4.0
10.67
18.33
5.33
-0.67
-2.0
-6.0
6.67
1.33
11.33
-9.33
3.67
-5.0
5.67
15.33
10.0
5.0
4.67
9.33
7.0
16.67
5.33
1.33
-2.0
9.67
-4.33
0.67
16.67
-0.33
-0.33
2.67
8.33
6.33
-0.67
-1.33
-1.0
7.67
1.67
10.33
6.67
4.67
3.33
5.0
4.33
5.0
-2.33
1.67
-3.33
-1.67
2.67
3.0
4.67
-1.67
4.67
-7.0
2.0
5.67
-0.33
1.0
3.33
-1.67
-5.67
5.33