File: EDX Back Ups and Old Files/Spectra copy 3.3.23/Samples/High pH BL 60C 2d/9.75.txt
0.0
25.33
-42.0
-36.0
7.67
1.33
0.67
0.33
0.67
-0.33
0.67
1.0
0.67
-0.67
0.0
1.0
-0.67
2.33
-1.33
3.33
1.0
0.33
-0.33
3.67
2.67
4.67
1.33
5.33
2.33
3.33
12.0
5.33
2.0
-1.33
7.0
2.0
6.33
3.0
5.67
2.33
3.67
0.0
4.33
6.67
6.0
4.67
0.33
5.0
2.67
0.67
-1.0
-0.33
0.67
0.33
1.33
4.67
3.0
-6.0
4.33
-3.33
4.33
0.33
-1.33
2.0
-4.0
-1.0
3.67
-1.33
2.33
0.67
1.33
3.33
0.0
1.0
-3.0
1.33
-1.33
1.33
1.0
-3.33
1.33
2.67
-4.33
0.0
6.67
-1.67
0.33
-4.0
3.67
1.33
0.67
0.0
-4.33
0.33
-1.67
5.0
0.0
5.0
4.33
-2.33
3.67
2.0
2.67
5.0
4.67
3.0
-1.33
1.67
1.67
-0.33
-2.0
5.0
7.33
5.0
3.0
11.0
27.67
14.33
9.0
0.0
8.67
3.33
0.33
5.33
7.67
1.0
8.0
10.67
6.67
5.0
4.0
5.33
14.0
9.67
5.67
3.33
6.0
4.0
8.0
-0.67
9.67
14.67
9.67
5.33
8.67
1.33
18.67
25.33
23.33
21.67
19.0
2.67
10.33
1.33
11.67
15.0
2.0
15.67
12.33
13.33
10.0
12.67
1.0
11.0
7.67
17.0
5.67
2.0
16.0
9.0
2.33
3.67
10.67
3.33
12.0
9.0
12.67
5.0
6.0
6.67
17.67
14.67
12.33
20.33
19.67
39.67
60.0
135.67
134.33
121.33
65.33
37.67
5.67
-0.33
8.33
6.67
6.33
0.0
3.0
11.67
-3.67
22.33
12.0
5.0
4.0
9.0
16.0
17.0
19.33
12.67
6.0
12.0
3.67
12.0
18.0
26.67
11.67
19.67
12.67
0.67
17.33
4.0
2.67
11.0
6.33
2.67
4.0
5.0
5.67
21.67
2.67
3.0
-0.33
1.33
2.33
4.33
1.0
-3.0
3.67
5.33
10.33
3.67
4.67
4.0
6.67
10.33
7.0
1.0
-1.33
11.33
8.0
12.67
-5.67
-5.67
-5.0
11.67
-1.33
-5.33
4.67
4.67
5.67
-1.33
1.33
5.33
4.33
5.67
3.0
3.67
8.67
1.33
9.67
-1.33
7.33
3.0
3.33
0.0
0.67
1.67
1.67
5.33
2.67
-5.0
-2.33
7.33
8.67
-3.0
-2.0
3.67
6.67
-1.0
1.33
-0.67
3.33
1.33