File: EDX Back Ups and Old Files/Spectra copy 3.3.23/Samples/High pH SF 60C 14d/10.0.txt
0.0
20.67
-38.0
-8.0
5.67
-0.67
-0.67
-1.67
-0.67
-0.33
1.0
-0.33
-0.67
0.0
0.67
-1.67
-2.0
3.0
0.33
0.67
3.67
-3.67
4.0
-4.33
6.67
0.0
-3.33
4.67
-3.33
-2.33
1.67
-0.67
0.0
-0.33
8.33
4.33
-0.67
3.67
5.67
2.67
1.67
2.33
4.0
-4.33
5.0
4.33
6.33
-6.0
1.0
7.0
4.0
4.67
1.33
-0.33
-1.67
4.33
-4.0
2.67
-2.0
3.67
-5.33
-1.0
2.67
0.33
1.0
2.33
4.33
-1.67
2.0
2.0
-5.0
1.33
-0.33
-3.67
-4.33
7.0
0.67
-2.0
-1.67
-3.0
2.33
-3.0
-2.33
-2.67
1.67
-1.33
3.0
-4.67
3.33
-3.33
0.0
0.0
-4.33
-1.67
-1.33
0.67
-3.33
-3.0
-1.33
-5.67
-1.0
-1.0
-4.33
-3.67
-4.0
-2.67
-6.33
-3.67
-2.33
-10.0
-9.33
-4.33
-11.33
-6.0
7.67
4.0
19.33
2.0
-4.67
-6.0
-13.33
2.33
-6.67
-5.0
3.67
-7.67
-4.0
-6.0
-4.0
-8.33
-3.67
-4.0
-9.33
-2.67
1.33
-5.33
-5.33
-5.67
-7.0
-2.33
-1.67
-4.67
-8.0
0.33
-2.67
6.67
10.0
9.0
27.67
24.0
4.33
4.0
1.33
2.33
10.67
9.0
-1.67
-4.0
3.0
4.67
6.0
2.33
2.67
-6.67
6.0
0.0
-0.67
5.67
-0.67
3.0
5.0
4.67
5.67
-2.33
6.67
2.33
6.33
14.67
13.33
9.0
11.33
4.67
7.67
18.33
13.67
17.67
76.67
129.0
129.0
105.33
53.67
16.33
17.67
4.33
2.0
11.33
4.33
10.0
7.33
5.67
4.0
6.33
-4.67
1.0
1.33
1.33
6.33
5.67
6.0
7.67
7.0
1.67
1.67
-5.67
-5.33
22.67
21.33
12.67
13.0
2.67
-8.67
10.67
6.33
13.0
-9.67
6.33
-3.33
6.67
-2.67
16.0
6.0
7.33
-1.67
2.67
3.0
-5.0
-5.0
-1.0
9.0
-1.67
-5.67
10.67
6.0
1.67
9.67
-6.0
-7.0
4.33
5.33
15.67
21.0
-1.0
3.0
0.67
-0.33
7.67
-3.33
9.0
1.0
10.33
6.67
-3.0
1.0
-8.33
4.0
4.67
1.67
-1.0
2.33
2.0
9.33
1.67
10.0
2.67
1.67
-3.33
4.33
-6.0
0.67
0.67
-3.33
0.0
2.67
-2.0
-2.0
1.33
-5.67
1.0
0.33
1.67
-7.67
3.67
1.0
-1.33