File: EDX Back Ups and Old Files/Spectra copy 3.3.23/Samples/High pH SF 60C 14d/10.5.txt
0.0
50.67
-100.0
37.0
6.67
-0.67
-1.67
-1.67
-0.67
0.67
0.0
-0.33
-0.67
0.0
1.67
0.33
0.0
1.0
0.33
3.67
8.67
-1.67
7.0
-1.33
4.67
3.0
7.67
2.67
2.67
-1.33
-2.33
-4.67
-9.0
-3.33
-1.67
2.33
-2.67
-2.33
4.67
2.67
1.67
-1.67
7.0
0.67
0.0
4.33
11.33
0.0
2.0
9.0
4.0
2.67
3.33
-0.33
1.33
-2.67
3.0
-3.33
4.0
-0.33
-0.33
-1.0
0.67
1.33
-2.0
2.33
-0.67
-2.67
-2.0
1.0
7.0
-1.67
2.67
-3.67
-0.33
1.0
-4.33
1.0
2.33
2.0
6.33
-2.0
-3.33
5.33
-0.33
2.67
-1.0
-0.67
5.33
-2.33
-4.0
-4.0
-2.33
-1.67
-1.33
0.67
-5.33
-2.0
-0.33
-2.67
2.0
3.0
-2.33
-11.67
-9.0
-0.67
-5.33
-4.67
-2.33
-8.0
-6.33
2.67
-7.33
-6.0
-0.33
5.0
9.33
2.0
-5.67
-2.0
-13.33
-1.67
-1.67
-11.0
-3.33
-3.67
-13.0
-14.0
-7.0
-4.33
4.33
-5.0
-7.33
-13.67
2.33
-4.33
-7.33
2.33
-9.0
-3.33
-3.67
-9.67
-4.0
-0.67
-5.67
3.67
12.0
34.0
22.67
14.0
9.33
13.0
6.33
2.33
-6.33
0.0
12.33
-4.0
4.0
10.67
2.0
12.33
7.67
4.33
3.0
6.0
-1.67
2.67
3.33
7.0
6.0
7.67
7.67
3.67
3.67
2.33
12.33
18.67
12.33
7.0
0.33
2.67
23.67
9.33
17.67
33.67
82.67
143.0
180.0
155.33
71.67
38.33
16.67
8.33
10.0
3.33
0.33
13.0
16.33
-1.33
4.0
7.33
7.33
-3.0
-4.67
0.33
5.33
-8.33
12.0
17.67
5.0
7.67
6.67
-4.67
9.67
18.67
17.33
12.67
20.0
11.67
-0.67
-1.33
4.33
1.0
-3.67
3.33
1.67
-5.33
9.33
2.0
13.0
0.33
-14.67
1.67
4.0
-11.0
5.0
3.0
9.0
1.33
0.33
4.67
0.0
4.67
0.67
9.0
-3.0
-2.67
-1.67
-4.33
11.0
-7.0
-4.0
2.67
-1.33
1.67
-1.33
6.0
-1.0
1.33
5.67
-3.0
-4.0
1.67
1.0
6.67
0.67
-7.0
6.33
3.0
5.33
3.67
10.0
5.67
10.67
5.67
-0.67
0.0
0.67
6.67
4.67
3.0
7.67
2.0
-1.0
-3.67
-3.67
1.0
-4.67
-0.33
1.33
-0.33
5.0
1.67