File: EDX Back Ups and Old Files/Spectra copy 3.3.23/Samples/High pH SF 60C 14d/10.75.txt
0.0
54.67
-35.0
8.0
-0.33
-4.67
-1.67
-1.67
-0.67
-0.33
1.0
-0.33
-0.67
2.0
-0.33
0.33
-2.0
0.0
-0.67
0.67
-0.33
3.33
1.0
-0.33
2.67
-4.0
3.67
2.67
-0.33
4.67
0.67
7.33
-5.0
2.67
4.33
3.33
-1.67
7.67
1.67
13.67
4.67
-1.67
8.0
4.67
3.0
7.33
5.33
-2.0
0.0
6.0
-1.0
2.67
1.33
-1.33
-1.67
1.33
7.0
0.67
3.0
-0.33
1.67
-1.0
-1.33
-4.67
-4.0
2.33
5.33
-1.67
-1.0
2.0
-4.0
8.33
-4.33
-6.67
6.67
0.0
3.67
-2.0
3.33
1.0
-1.67
3.0
-3.33
5.33
-1.33
3.67
0.0
1.33
4.33
-2.33
-4.0
-5.0
-6.33
-5.67
-0.33
-2.33
-0.33
3.0
-3.33
2.33
-1.0
-1.0
1.67
-1.67
-4.0
-3.67
-2.33
-5.67
-1.33
-9.0
-4.33
-2.33
-9.33
-7.0
-3.33
2.0
19.33
6.0
-3.67
4.0
-7.33
-0.67
-4.67
-8.0
-1.33
-7.67
-6.0
-6.0
-3.0
-12.33
-5.67
-4.0
-7.33
-5.67
-2.67
-8.33
-5.33
7.33
-7.0
9.67
-10.67
-4.67
-2.0
2.33
5.33
-1.33
17.0
26.0
36.67
19.0
6.33
9.0
8.33
1.33
7.67
3.0
15.33
6.0
-4.0
3.67
-3.0
4.33
10.67
-0.67
22.0
-1.0
12.33
5.67
0.33
2.0
11.0
3.67
10.67
6.67
7.67
1.33
10.33
14.67
10.33
13.0
4.33
4.67
17.67
14.33
24.67
34.67
83.67
153.0
170.0
160.33
83.67
22.33
24.67
-3.67
3.0
4.33
7.33
11.0
4.33
7.67
3.0
15.33
11.33
15.0
6.33
2.33
3.33
-2.33
11.0
9.67
5.0
9.67
20.67
12.33
11.67
9.67
18.33
7.67
24.0
5.67
7.33
7.67
17.33
0.0
7.33
9.33
8.67
-13.33
1.33
6.0
1.0
9.33
8.33
13.67
6.0
-15.0
-5.0
12.0
12.0
3.33
-2.67
-1.33
7.0
5.67
4.67
6.0
-3.0
-3.67
5.33
10.67
8.0
0.0
8.0
2.67
-0.33
8.67
-1.33
12.0
-2.0
5.33
-0.33
-7.0
0.0
2.67
7.0
5.67
0.67
-3.0
2.33
7.0
7.33
8.67
4.0
5.67
-0.33
-2.33
2.33
-4.0
-2.33
-4.33
-2.33
1.0
0.67
2.0
-3.0
1.33
-3.67
-1.0
-0.67
3.67
2.33
2.67
1.0
1.67