File: EDX Back Ups and Old Files/Spectra copy 3.3.23/Samples/High pH SF 60C 14d/11.5.txt
0.0
-7.33
-49.0
20.0
-8.33
-0.67
-0.67
-1.67
2.33
-0.33
0.0
0.67
-0.67
1.0
1.67
0.33
1.0
1.0
6.33
4.67
-2.33
0.33
5.0
-2.33
0.67
-1.0
-0.33
-0.33
-1.33
1.67
-2.33
2.33
0.0
5.67
5.33
6.33
0.33
4.67
3.67
-2.33
2.67
6.33
8.0
1.67
2.0
-2.67
9.33
-3.0
1.0
8.0
6.0
4.67
-0.67
-5.33
4.33
-1.67
3.0
-1.33
-2.0
-0.33
-5.33
-3.0
-4.33
-2.67
-1.0
-3.67
1.33
-7.67
-1.0
3.0
3.0
-0.67
-3.33
-3.67
8.67
4.0
-1.33
-1.0
6.33
2.0
-2.67
-1.0
-0.33
1.33
2.67
2.67
-4.0
-0.67
7.33
-2.33
-5.0
-2.0
-5.33
-6.67
0.67
-0.33
-1.33
0.0
-0.33
1.33
4.0
-3.0
-1.33
-3.67
-8.0
-2.67
-6.33
-3.67
-1.33
1.0
-4.33
1.67
-3.33
-9.0
-4.33
-2.0
9.33
-4.0
-10.67
-6.0
-10.33
-5.67
-9.67
-2.0
-5.33
-10.67
-12.0
-12.0
-1.0
-6.33
-0.67
2.0
-4.33
-11.67
5.33
-3.33
-11.33
-2.67
-5.0
5.67
-3.67
-7.67
-5.0
-2.67
0.33
4.67
8.0
35.0
48.67
23.0
17.33
11.0
17.33
4.33
4.67
5.0
3.33
6.0
0.0
-2.33
-7.0
2.33
8.67
7.33
13.0
0.0
5.33
1.67
7.33
7.0
15.0
1.67
27.67
9.67
9.67
7.33
7.33
8.67
9.33
3.0
5.33
-4.33
10.67
15.33
23.67
31.67
112.67
187.0
237.0
224.33
88.67
32.33
10.67
15.33
5.0
13.33
2.33
10.0
-4.67
-1.33
-3.0
10.33
2.33
7.0
-6.67
3.33
8.33
11.67
4.0
13.67
1.0
-7.33
5.67
7.33
10.67
4.67
5.33
15.67
21.0
10.67
-18.67
13.67
9.33
17.0
1.33
-6.67
15.67
1.67
7.33
0.0
1.0
29.33
-2.67
3.67
8.0
-5.0
-3.0
1.0
16.0
4.33
-0.67
9.67
-7.0
-1.33
-2.33
6.0
6.0
-9.67
-2.67
5.67
14.0
-2.0
7.0
-1.33
-4.33
6.67
5.67
3.0
0.0
5.33
-7.33
-3.0
-4.0
-4.33
4.0
0.67
-4.33
8.0
1.33
2.0
4.33
7.67
-1.0
4.67
-3.33
0.67
5.33
-8.0
-2.33
2.67
-4.33
-1.0
-2.33
5.0
-5.0
1.33
-0.67
1.0
-3.67
-2.33
-2.67
1.67
5.0
-2.33