File: EDX Back Ups and Old Files/Spectra copy 3.3.23/Samples/High pH SF 60C 14d/6.25.txt
0.0
25.67
-46.0
8.0
-2.33
4.33
0.33
-0.67
1.33
0.67
2.0
-0.33
-0.67
2.0
1.67
1.33
2.0
1.0
9.33
5.67
-3.33
2.33
9.0
-0.33
-0.33
-8.0
0.67
-2.33
2.67
6.67
-1.33
1.33
8.0
-2.33
3.33
6.33
11.33
11.67
3.67
-1.33
7.67
5.33
0.0
5.67
3.0
6.33
8.33
-1.0
-1.0
7.0
9.0
1.67
6.33
-2.33
1.33
4.33
2.0
1.67
3.0
-0.33
-2.33
4.0
-0.33
-1.67
-3.0
4.33
-1.67
-1.67
2.0
4.0
-1.0
-2.67
-6.33
2.33
-2.33
-1.0
0.67
2.0
3.33
-4.0
-1.67
-2.0
6.67
3.33
1.67
2.67
3.0
-1.67
1.33
-1.33
-2.0
-7.0
-3.33
-4.67
0.67
2.67
4.67
-2.0
5.67
4.33
-3.0
-5.0
-0.33
-6.67
-8.0
1.33
-1.33
-5.67
2.67
-6.0
-2.33
-7.33
-6.33
-5.0
-4.33
1.0
11.33
5.0
-4.67
-12.0
-6.33
-0.67
-5.67
-12.0
-0.33
-4.67
-14.0
-8.0
-3.0
-3.33
-5.67
-7.0
-12.33
-12.67
0.33
-8.33
-8.33
2.33
-18.0
-0.33
-9.67
-10.67
-7.0
-4.67
5.33
-0.33
11.0
5.0
9.67
13.0
2.33
-6.0
2.33
-1.67
9.67
7.0
10.33
0.0
-7.0
-5.33
0.0
1.33
-1.33
7.33
21.0
13.0
4.33
9.67
7.33
-1.0
11.0
7.67
8.67
3.67
8.67
-0.67
7.33
9.67
6.33
6.0
13.33
11.67
15.67
4.33
10.67
14.67
31.67
85.0
81.0
100.33
32.67
16.33
10.67
6.33
2.0
-0.67
1.33
8.0
0.33
-8.33
2.0
17.33
14.33
8.0
-2.67
15.33
10.33
10.67
4.0
13.67
2.0
2.67
8.67
1.33
7.67
17.67
10.33
17.67
17.0
15.67
-0.67
4.67
25.33
5.0
2.33
8.33
16.67
1.67
5.33
5.0
12.0
9.33
0.33
5.67
5.0
-5.0
14.0
2.0
19.0
-0.67
-3.67
5.67
4.0
-0.33
7.67
6.0
-2.0
8.33
6.33
11.67
9.0
5.0
7.0
3.67
-8.33
-0.33
0.67
11.0
11.0
9.33
0.67
-5.0
-4.0
-6.33
0.0
10.67
-1.33
-3.0
9.33
5.0
9.33
6.67
1.0
-4.33
-0.33
4.67
0.33
7.0
-1.33
2.67
5.67
3.0
3.67
3.0
-3.0
-3.67
1.33
1.0
-4.67
1.67
-2.67
6.67
11.0
3.67