File: EDX Back Ups and Old Files/Spectra copy 3.3.23/Samples/High pH SF 60C 14d/8.25.txt
0.0
130.67
23.0
-15.0
-10.33
-0.67
-1.67
-0.67
-0.67
0.67
2.0
-0.33
-0.67
0.0
0.67
1.33
-2.0
3.0
1.33
-4.33
-1.33
-0.67
0.0
-0.33
-0.33
-7.0
-0.33
5.67
2.67
-0.33
2.67
-0.67
3.0
0.67
1.33
4.33
3.33
-0.33
-0.33
1.67
10.67
-2.67
7.0
0.67
11.0
2.33
5.33
1.0
-4.0
10.0
7.0
1.67
7.33
-1.33
3.33
2.33
3.0
-0.33
11.0
4.67
-1.33
-3.0
2.67
-4.67
8.0
1.33
-4.67
-5.67
1.0
5.0
2.0
3.33
-0.33
-3.67
-2.33
6.0
-1.33
-1.0
0.33
6.0
0.33
-3.0
0.67
1.33
0.67
0.67
5.0
-2.67
1.33
-6.33
-6.0
-2.0
-2.33
2.33
1.67
-0.33
-2.33
-4.0
-0.33
0.33
-3.0
-4.0
-0.33
-3.67
-9.0
-3.67
-2.33
3.33
-1.33
-10.0
-5.33
-5.33
-10.33
-2.0
-9.33
10.0
14.33
15.0
-6.67
-4.0
-6.33
3.33
-11.67
-6.0
-1.33
-7.67
-12.0
-12.0
2.0
-9.33
-8.67
-2.0
-4.33
-13.67
5.33
-5.33
-13.33
2.33
-10.0
-3.33
-1.67
-10.67
-2.0
5.33
-1.67
-1.33
3.0
14.0
17.67
18.0
7.33
5.0
0.33
3.33
-4.33
10.0
6.33
1.0
8.0
-0.33
3.0
2.33
3.67
10.33
-1.0
8.0
3.33
5.67
15.33
1.0
13.0
2.67
0.67
1.67
1.67
2.33
1.33
19.67
11.33
15.0
-0.67
3.67
11.67
11.33
16.67
26.67
55.67
88.0
113.0
97.33
47.67
27.33
19.67
2.33
2.0
5.33
0.33
2.0
3.33
3.67
3.0
15.33
10.33
3.0
8.33
1.33
16.33
3.67
5.0
12.67
-3.0
-5.33
2.67
-8.67
11.67
11.67
20.33
24.67
29.0
11.67
9.33
2.67
11.33
12.0
-0.67
17.33
-6.33
2.67
0.33
-1.0
0.0
4.33
-9.67
-1.33
4.0
-6.0
-3.0
5.0
10.0
5.33
3.33
1.67
0.0
4.67
0.67
11.0
-3.0
-1.67
0.33
5.67
8.0
-6.0
-5.0
4.67
2.67
4.67
3.67
5.0
-7.0
2.33
2.67
-2.0
-4.0
-6.33
8.0
3.67
2.67
-2.0
5.33
5.0
7.33
0.67
10.0
9.67
3.67
-0.33
2.33
-1.0
-2.33
1.67
1.67
1.0
0.67
-2.0
2.0
1.33
-3.67
3.0
2.33
2.67
3.33
4.67
2.0
2.67