File: EDX Back Ups and Old Files/Spectra copy 3.3.23/Samples/High pH SF 60C 14d/9.25.txt
0.0
52.67
14.0
6.0
6.67
0.33
-1.67
-1.67
1.33
0.67
0.0
-0.33
-0.67
0.0
0.67
1.33
-1.0
2.0
1.33
5.67
5.67
-0.67
6.0
-0.33
4.67
-2.0
4.67
3.67
2.67
-4.33
-1.33
-3.67
2.0
3.67
2.33
2.33
6.33
-0.33
3.67
1.67
6.67
-0.67
7.0
1.67
3.0
1.33
11.33
0.0
5.0
2.0
9.0
7.67
1.33
-3.33
-2.67
-3.67
5.0
4.67
0.0
-2.33
-2.33
-3.0
-1.33
-0.67
2.0
-0.67
-0.67
-3.67
-1.0
6.0
1.0
0.33
3.67
-3.67
-1.33
5.0
2.67
-2.0
-0.67
0.0
2.33
-3.0
0.67
1.33
1.67
0.67
3.0
-5.67
3.33
-6.33
-2.0
-2.0
-1.33
-6.67
-2.33
-1.33
-1.33
-3.0
-4.33
-0.67
-2.0
-3.0
-0.33
-7.67
-9.0
-4.67
0.67
-5.67
-5.33
-3.0
-1.33
-4.33
-7.33
-9.0
-5.33
2.0
14.33
4.0
0.33
1.0
-5.33
4.33
-5.67
-2.0
-2.33
-0.67
-15.0
-7.0
2.0
-0.33
-1.67
0.0
-15.33
-9.67
7.33
-3.33
-12.33
-5.67
-6.0
4.67
-0.67
-11.67
0.0
-4.67
-4.67
7.67
12.0
19.0
18.67
26.0
3.33
1.0
5.33
0.33
-0.33
4.0
3.33
1.0
0.0
2.67
-1.0
13.33
-3.33
-3.67
-3.0
3.0
1.33
1.67
16.33
5.0
11.0
1.67
6.67
-1.33
0.67
7.33
9.33
-0.33
20.33
1.0
6.33
3.67
22.67
10.33
10.67
16.67
54.67
81.0
114.0
109.33
58.67
15.33
9.67
15.33
2.0
-12.67
2.33
10.0
1.33
13.67
5.0
1.33
10.33
-2.0
-3.67
15.33
12.33
5.67
7.0
6.67
-6.0
-7.33
4.67
-4.67
-0.33
17.67
9.33
19.67
37.0
20.67
4.33
9.67
7.33
1.0
-0.67
-1.67
2.67
3.67
13.33
-4.0
13.0
14.33
8.33
6.67
-6.0
-5.0
7.0
2.0
17.0
7.33
-9.67
-5.33
4.0
14.67
0.67
0.0
1.0
-0.67
4.33
0.67
6.0
1.0
8.0
4.67
-7.33
6.67
2.67
2.0
1.0
2.33
-0.33
1.0
-3.0
-0.33
3.0
6.67
-6.33
-9.0
-2.67
-1.0
2.33
2.67
8.0
1.67
-1.33
2.67
0.33
1.0
0.67
4.67
2.67
-1.0
7.67
1.0
2.0
-2.67
-8.67
0.0
0.33
-2.33
-2.67
1.67
3.0
-0.33