File: EDX Back Ups and Old Files/Spectra copy 3.3.23/Samples/High pH SF 60C 6d/10.5.txt
0.0
10.67
23.33
15.33
3.33
-3.0
-0.67
0.0
0.0
-0.33
1.0
1.0
-0.33
-1.33
2.67
-1.0
3.0
1.33
0.67
2.33
-4.0
-5.0
4.33
-4.67
-1.33
0.0
12.67
1.33
-3.0
1.33
-0.67
4.0
0.67
3.33
9.0
0.0
-1.33
-2.0
5.33
2.0
-1.33
3.67
-1.0
1.0
1.0
1.67
8.0
9.33
1.33
2.33
-0.67
8.0
0.33
7.0
-2.33
1.33
6.0
1.67
0.0
8.0
0.67
2.33
1.0
-2.67
-1.67
3.33
1.33
4.0
-3.0
-1.33
3.33
-1.67
-6.0
1.67
-5.67
-0.33
-1.67
1.67
2.0
-2.0
3.0
10.33
5.0
-2.67
-2.0
-3.33
-3.0
6.0
-0.67
-4.33
1.0
-5.33
-3.33
-4.33
-0.67
-6.67
-4.0
5.33
-0.67
-0.67
-6.33
-1.0
-1.0
1.33
-8.67
-4.0
-1.0
-6.0
-7.67
0.67
1.0
-2.67
-11.33
-1.0
10.0
8.67
2.0
4.0
-4.33
-2.67
-10.0
-6.67
-2.33
-7.33
-5.33
-9.0
10.0
-1.67
-1.0
-1.0
-0.67
2.33
-10.33
-8.67
5.67
-0.33
1.33
2.67
-5.67
-0.67
-9.0
-13.0
-6.33
-4.0
-6.67
0.33
2.67
31.33
25.67
18.33
6.67
7.0
3.0
0.0
-3.33
2.0
-4.33
7.67
2.33
3.67
-1.67
8.33
4.33
-4.0
-4.67
8.0
6.0
0.33
-2.67
4.0
-0.67
6.67
3.0
-5.0
9.67
3.67
6.33
2.0
4.67
16.33
-4.33
4.67
5.0
9.0
11.33
51.33
78.33
148.0
168.0
131.33
59.67
22.33
16.67
20.33
4.0
-6.0
-11.33
10.33
16.0
22.33
15.0
6.67
4.67
4.0
8.0
11.0
6.67
3.0
5.67
9.33
11.33
-2.33
8.0
2.33
15.0
-5.33
0.67
4.33
5.67
8.0
19.33
12.0
-8.0
-2.0
6.0
6.33
4.33
24.67
21.0
23.67
18.33
19.0
4.0
10.67
-1.0
-1.67
6.33
11.0
7.67
-6.67
6.33
1.67
-3.67
-3.67
9.33
4.67
2.67
-2.33
9.67
7.67
-1.67
2.33
2.67
-2.0
13.67
1.33
8.33
8.67
-4.67
8.67
-0.67
0.33
4.33
-3.67
4.0
7.33
0.33
-8.0
3.0
-4.0
-1.0
-1.33
1.0
6.0
1.67
-0.67
-5.0
4.67
-1.33
6.33
3.0
-1.0
-3.33
4.0
5.67
3.33
-1.0
2.67
-7.33
-0.33
-2.67
3.67
-4.0
-0.33