File: EDX Back Ups and Old Files/Spectra copy 3.3.23/Samples/High pH SF 60C 6d/10.75.txt
0.0
-89.33
67.33
28.33
9.33
-3.0
0.33
0.0
1.0
-0.33
0.0
1.0
0.67
-1.33
0.67
-2.0
1.0
0.33
-3.33
-3.67
1.0
6.0
-1.67
4.33
5.67
-1.0
4.67
2.33
2.0
-0.67
11.33
2.0
5.67
-0.67
4.0
-4.0
1.67
-6.0
4.33
6.0
9.67
5.67
-3.0
2.0
-4.0
2.67
9.0
-0.67
3.33
2.33
1.33
-1.0
-0.67
4.0
7.67
-1.67
-1.0
-0.33
-1.0
-3.0
-2.33
2.33
4.0
-2.67
0.33
-0.67
-0.67
2.0
4.0
-4.33
-4.67
-5.67
-6.0
-0.33
-2.67
1.67
-4.67
0.67
-2.0
5.0
-1.0
1.33
3.0
-4.67
-3.0
-1.33
-1.0
0.0
-1.67
1.67
7.0
0.67
-5.33
-0.33
6.33
-0.67
-5.0
-2.67
-2.67
-1.67
-4.33
-2.0
-4.0
-0.67
-8.67
-2.0
-2.0
-5.0
-4.67
4.67
-6.0
-0.67
-4.33
-10.0
-2.0
-4.33
5.0
-3.0
-4.33
0.33
-3.0
3.33
-7.33
-6.33
-11.33
-8.0
7.0
-3.67
1.0
-11.0
-4.67
10.33
-7.33
-10.67
-3.33
-1.33
-4.67
-2.33
3.33
-2.67
-5.0
-14.0
-4.33
-6.0
0.33
4.33
11.67
19.33
17.67
27.33
-1.33
3.0
4.0
2.0
9.67
-3.0
3.67
0.67
1.33
5.67
7.33
3.33
1.33
4.0
-2.67
5.0
-1.0
9.33
12.33
18.0
-6.67
5.67
-2.0
0.0
10.67
7.67
4.33
-3.0
9.67
4.33
0.67
-0.33
4.0
1.0
18.33
54.33
77.33
183.0
193.0
161.33
79.67
23.33
5.67
15.33
9.0
0.0
-17.33
3.33
4.0
14.33
3.0
3.67
5.67
19.0
8.0
3.0
6.67
5.0
-4.33
9.33
6.33
0.67
7.0
6.33
4.0
5.67
3.67
13.33
2.67
5.0
-0.67
20.0
5.0
-1.0
0.0
7.33
-1.67
-2.33
10.0
20.67
32.33
9.0
17.0
1.67
6.0
4.33
-5.67
7.0
8.67
-5.67
0.33
-0.33
-0.67
0.33
8.33
2.67
11.67
6.67
5.67
17.67
3.33
1.33
14.67
10.0
0.67
2.33
6.33
15.67
0.33
3.67
2.33
3.33
-1.67
-10.67
-3.0
6.33
0.33
-12.0
-2.0
-1.0
1.0
2.67
7.0
1.0
6.67
2.33
-3.0
-2.33
3.67
2.33
1.0
9.0
5.67
4.0
1.67
-0.67
0.0
3.67
-7.33
-0.33
-2.67
3.67
3.0
3.67