File: EDX Back Ups and Old Files/Spectra copy 3.3.23/Samples/High pH SF 60C 6d/6.25.txt
0.0
-34.33
-5.67
3.33
0.33
-2.0
0.33
1.0
0.0
-0.33
1.0
2.0
-0.33
-1.33
-0.33
-1.0
0.0
1.33
0.67
-1.67
3.0
-2.0
4.33
0.33
-1.33
9.0
6.67
-5.67
0.0
10.33
9.33
9.0
3.67
1.33
1.0
-4.0
7.67
-1.0
2.33
3.0
5.67
4.67
0.0
-1.0
3.0
5.67
6.0
5.33
1.33
8.33
-0.67
1.0
7.33
10.0
3.67
5.33
0.0
-3.33
-4.0
2.0
-1.33
-1.67
9.0
-4.67
-0.67
3.33
7.33
3.0
1.0
4.67
-2.67
0.33
0.0
0.67
-2.67
0.67
-1.67
1.67
-3.0
3.0
0.0
0.33
5.0
1.33
-4.0
2.67
-1.0
0.0
-2.67
-2.33
-1.0
-2.33
2.67
-2.33
2.33
0.33
3.0
-3.67
-3.67
-2.67
-5.33
-2.0
-5.0
4.33
-6.67
-2.0
-7.0
0.0
-2.67
-2.33
-5.0
-4.67
-5.33
-10.0
-1.0
13.67
25.0
9.0
6.67
-2.67
-5.0
0.33
-6.33
-14.33
-3.33
-7.0
-9.0
3.33
-2.0
-8.0
-4.67
-1.67
4.67
-11.67
-2.33
-5.33
-4.67
-4.33
1.33
-0.67
0.0
-10.0
-3.33
-8.0
-6.67
-4.67
0.67
10.33
19.67
13.33
-3.33
0.0
-3.0
-3.0
7.67
12.0
-0.33
-2.33
3.33
-0.33
-3.67
11.33
3.33
9.0
-9.67
4.0
-4.0
-1.67
-0.67
7.0
4.33
4.67
5.0
-11.0
6.67
11.67
3.33
2.0
5.67
11.33
2.67
5.67
4.0
23.0
10.33
25.33
33.33
57.0
93.0
89.33
45.67
19.33
12.67
12.33
12.0
0.0
-6.33
14.33
14.0
9.33
7.0
1.67
10.67
0.0
11.0
0.0
7.67
18.0
4.67
10.33
8.33
8.67
9.0
8.33
10.0
14.67
9.67
28.33
17.67
18.0
8.33
10.0
9.0
-7.0
6.0
1.33
9.33
-0.33
-8.0
14.67
12.33
19.0
1.0
9.67
11.0
2.33
13.33
12.0
-8.33
2.33
2.33
0.67
-9.67
7.33
0.33
-4.33
-2.33
3.67
6.67
6.67
2.33
-3.67
17.67
6.0
1.67
7.33
1.33
-2.33
6.33
5.67
8.33
5.33
4.33
1.33
0.0
8.33
3.33
6.0
1.0
5.0
4.0
-0.33
4.0
1.0
4.67
2.33
-1.0
5.67
-4.33
1.33
5.0
7.0
-3.33
3.0
-4.33
-3.67
-6.0
9.67
-2.33
6.67
3.33
1.67
4.0
7.67