File: EDX Back Ups and Old Files/Spectra copy 3.3.23/Samples/High pH SF 60C 6d/6.5.txt
0.0
-81.33
-24.67
9.33
3.33
-2.0
-0.67
1.0
0.0
-0.33
0.0
1.0
-0.33
-0.33
1.67
-2.0
2.0
1.33
-1.33
-2.67
2.0
4.0
-5.67
3.33
-1.33
0.0
3.67
0.33
2.0
2.33
11.33
8.0
-2.33
2.33
-2.0
-3.0
4.67
3.0
2.33
7.0
1.67
0.67
-6.0
0.0
5.0
6.67
7.0
-0.67
4.33
9.33
9.33
9.0
8.33
3.0
4.67
-0.67
-3.0
1.67
-2.0
-1.0
4.67
3.33
1.0
-4.67
-1.67
3.33
6.33
1.0
0.0
-1.33
-3.67
-5.67
-6.0
4.67
-4.67
-2.33
0.33
4.67
3.0
2.0
2.0
3.33
-2.0
0.33
2.0
5.67
-1.0
-2.0
0.33
-1.33
1.0
-4.33
-5.33
-1.33
-1.67
4.33
-2.0
-4.67
-5.67
-0.67
-2.33
-4.0
-5.0
5.33
-3.67
-5.0
-2.0
0.0
-6.67
0.67
-5.0
-6.67
-3.33
-2.0
6.0
14.67
16.0
12.0
4.67
-0.67
-10.0
0.33
-8.33
-13.33
-0.33
-10.0
0.0
-1.67
-6.0
-1.0
-4.67
-11.67
-4.33
-8.67
-5.33
-1.33
-1.67
-5.33
-5.67
-4.67
-13.0
-10.0
-8.33
0.0
1.33
5.33
-6.33
3.33
13.67
-1.67
-1.33
10.0
11.0
-3.0
0.67
1.0
3.67
0.67
13.33
5.67
-2.67
5.33
5.33
4.0
-11.67
4.0
8.0
3.33
17.33
0.0
3.33
9.67
3.0
3.0
9.67
10.67
11.33
0.0
3.67
-2.67
10.67
3.67
19.0
23.0
8.33
21.33
32.33
79.0
99.0
68.33
38.67
7.33
18.67
7.33
9.0
4.0
-3.33
6.33
18.0
8.33
7.0
10.67
12.67
4.0
12.0
8.0
15.67
-3.0
11.67
12.33
10.33
8.67
5.0
13.33
-4.0
21.67
14.67
31.33
31.67
32.0
10.33
3.0
2.0
-9.0
5.0
3.33
8.33
10.67
15.0
3.67
5.33
1.0
11.0
-0.33
-6.0
-3.67
3.33
3.0
-7.33
1.33
-1.67
6.67
-1.67
6.33
1.33
2.67
4.67
7.67
3.67
18.67
-4.67
-1.67
4.67
7.0
4.67
6.33
0.33
5.67
3.33
10.67
0.33
8.33
6.33
-2.67
2.0
8.33
-4.67
4.0
-1.0
-4.0
3.0
0.67
0.0
0.0
7.67
6.33
-2.0
1.67
6.67
14.33
-1.0
0.0
-3.33
8.0
1.67
-4.67
0.0
1.67
1.67
-0.33
-0.67
2.67
2.0
11.67