File: EDX Back Ups and Old Files/Spectra copy 3.3.23/Samples/High pH SF 60C 6d/6.75.txt
0.0
-0.33
57.33
12.33
1.33
-3.0
-0.67
0.0
0.0
-0.33
0.0
3.0
0.67
-1.33
0.67
-2.0
2.0
0.33
-0.33
1.33
2.0
-1.0
-1.67
5.33
4.67
2.0
5.67
1.33
0.0
3.33
8.33
2.0
-0.33
7.33
1.0
3.0
-4.33
2.0
3.33
5.0
0.67
3.67
-3.0
3.0
-1.0
0.67
8.0
4.33
0.33
0.33
-3.67
7.0
4.33
4.0
4.67
4.33
3.0
2.67
-7.0
0.0
-0.33
2.33
-1.0
-2.67
-1.67
-0.67
0.33
2.0
-4.0
-3.33
-1.67
3.33
-5.0
3.67
-0.67
-0.33
3.33
3.67
-1.0
4.0
0.0
0.33
-2.0
1.33
-4.0
-1.33
0.0
1.0
-2.67
-2.33
1.0
-2.33
2.67
-2.33
-0.67
0.33
0.0
-4.67
-5.67
-2.67
-5.33
1.0
3.0
3.33
-4.67
-3.0
-2.0
-3.0
0.33
3.67
-1.0
-5.67
-6.33
-5.0
5.0
14.67
30.0
9.0
-0.33
5.33
-1.0
1.33
-2.33
-1.33
-7.33
-10.0
1.0
4.33
-3.0
-17.0
-6.67
1.33
-6.33
-3.67
-1.33
-7.33
1.33
-2.33
-1.67
-2.67
-5.0
-7.0
-5.33
-8.0
1.33
2.33
-4.33
24.33
12.67
10.33
3.67
4.0
-7.0
1.0
-1.33
-6.0
0.67
-2.33
5.33
6.67
-3.67
5.33
-4.67
1.0
2.33
11.0
-2.0
3.33
12.33
18.0
5.33
7.67
13.0
3.0
2.67
7.67
4.33
1.0
9.67
2.33
10.67
18.67
7.0
18.0
3.33
23.33
33.33
76.0
87.0
72.33
46.67
14.33
18.67
22.33
13.0
11.0
1.67
8.33
23.0
-1.67
-8.0
10.67
7.67
9.0
3.0
17.0
3.67
-3.0
-1.33
11.33
3.33
1.67
7.0
14.33
8.0
4.67
36.67
19.33
21.67
31.0
4.33
12.0
-6.0
-2.0
11.0
4.33
15.33
9.67
17.0
23.67
8.33
7.0
4.0
-3.33
1.0
0.33
5.33
8.0
-12.33
-4.67
-5.67
1.67
-0.67
3.33
1.33
-1.33
5.67
3.67
8.67
7.67
7.33
-6.67
8.67
-1.0
5.67
-2.67
0.33
0.67
-5.67
3.67
7.33
-4.67
1.33
-1.67
-3.0
5.33
-0.67
-6.0
3.0
-7.0
11.0
-0.33
6.0
6.0
3.67
5.33
3.0
-1.33
-1.33
8.33
5.0
5.0
2.67
10.0
-0.33
1.33
-2.0
8.67
-0.33
2.67
-2.67
0.67
2.0
2.67