File: EDX Back Ups and Old Files/Spectra copy 3.3.23/Samples/High pH SF 60C 6d/7.25.txt
0.0
-97.33
-26.67
-17.67
-12.67
2.0
-0.67
0.0
0.0
-0.33
0.0
1.0
1.67
-1.33
0.67
0.0
1.0
1.33
-3.33
-2.67
-4.0
1.0
3.33
0.33
0.67
3.0
4.67
10.33
2.0
1.33
5.33
11.0
2.67
6.33
0.0
-3.0
-2.33
-7.0
5.33
11.0
4.67
1.67
-2.0
3.0
12.0
2.67
9.0
6.33
1.33
5.33
0.33
9.0
6.33
3.0
6.67
2.33
-2.0
10.67
5.0
3.0
0.67
1.33
0.0
2.33
-1.67
1.33
3.33
3.0
-3.0
-2.33
0.33
-3.67
-1.0
-0.33
-2.67
-0.33
-3.67
0.67
3.0
2.0
4.0
3.33
-2.0
-1.67
-4.0
3.67
-2.0
-1.0
1.33
-2.33
5.0
2.67
0.67
1.67
-0.67
1.33
-3.0
-1.67
-1.67
-0.67
-0.33
3.0
-3.0
0.33
-5.67
-4.0
-7.0
-3.0
0.33
2.67
0.0
-1.67
-5.33
-5.0
4.0
10.67
17.0
13.0
-4.33
-0.67
-2.0
-1.67
-7.33
-7.33
-4.33
-5.0
-1.0
-0.67
-11.0
-5.0
0.33
-10.67
-12.33
-12.67
-3.33
-0.33
2.33
-3.33
0.33
-5.67
-7.0
-9.0
-7.33
-6.0
-5.67
-5.67
3.67
22.33
3.67
1.33
3.67
7.0
-4.0
0.0
4.67
4.0
2.67
-2.33
-4.67
2.67
8.33
8.33
-2.67
-2.0
-1.67
1.0
-3.0
-1.67
12.33
8.0
-1.67
4.67
9.0
-2.0
13.67
11.67
3.33
4.0
0.67
4.33
9.67
-0.33
8.0
22.0
4.33
34.33
39.33
64.0
97.0
76.33
42.67
24.33
10.67
8.33
1.0
6.0
3.67
10.33
20.0
11.33
10.0
22.67
8.67
2.0
10.0
6.0
2.67
5.0
1.67
15.33
0.33
12.67
3.0
8.33
8.0
15.67
24.67
34.33
17.67
34.0
2.33
18.0
8.0
-2.0
16.0
2.33
10.33
-2.33
-2.0
6.67
22.33
12.0
0.0
0.67
1.0
5.33
3.33
10.0
0.67
5.33
-0.67
4.67
-11.67
-1.67
6.33
0.67
2.67
9.67
6.67
3.67
-3.67
2.33
11.67
-4.0
6.67
-5.67
4.33
7.67
-0.67
10.67
0.33
5.33
6.33
0.33
-2.0
5.33
-5.67
3.0
1.0
-5.0
12.0
-0.33
3.0
4.0
5.67
-2.67
-3.0
-2.33
0.67
3.33
1.0
1.0
-7.33
6.0
0.67
7.33
2.0
2.67
-5.33
0.67
-3.67
1.67
2.0
1.67