File: EDX Back Ups and Old Files/Spectra copy 3.3.23/Samples/High pH SF 60C 6d/8.0.txt
0.0
30.67
54.33
4.33
9.33
5.0
-0.67
0.0
1.0
-0.33
0.0
0.0
-0.33
-1.33
-0.33
-2.0
1.0
0.33
-0.33
-1.67
3.0
1.0
1.33
5.33
1.67
1.0
4.67
1.33
-1.0
5.33
5.33
14.0
3.67
6.33
-1.0
0.0
6.67
1.0
1.33
1.0
7.67
14.67
3.0
5.0
1.0
-2.33
4.0
1.33
6.33
4.33
-0.67
7.0
4.33
1.0
3.67
0.33
-3.0
6.67
-4.0
-4.0
6.67
-2.67
-1.0
2.33
-2.67
4.33
4.33
3.0
2.0
0.67
-1.67
-3.67
-7.0
4.67
-4.67
4.67
-1.67
2.67
1.0
2.0
0.0
-1.67
2.0
0.33
-1.0
-0.33
3.0
-2.0
3.33
-2.33
2.0
-3.33
-5.33
-1.33
3.33
0.33
2.0
-0.67
-1.67
-0.67
-0.33
2.0
-2.0
0.33
-4.67
-3.0
-1.0
1.0
-4.67
2.67
-6.0
-4.67
-9.33
3.0
10.0
14.67
38.0
28.0
-1.33
1.33
2.0
-3.67
-4.33
-10.33
2.67
0.0
4.0
-4.67
-1.0
-5.0
-8.67
-4.67
-7.33
-14.67
-9.33
-10.33
-3.67
-7.33
-0.67
-0.67
-7.0
-9.0
-0.33
-4.0
-8.67
0.33
3.67
11.33
17.67
10.33
-2.33
1.0
2.0
-4.0
-3.33
-5.0
-1.33
1.67
5.33
7.67
1.33
5.33
-0.67
-8.0
1.33
9.0
2.0
-1.67
3.33
-2.0
2.33
-1.33
1.0
0.0
10.67
6.67
10.33
3.0
4.67
1.33
10.67
4.67
8.0
14.0
25.33
33.33
31.33
74.0
92.0
81.33
31.67
14.33
13.67
7.33
6.0
1.0
1.67
17.33
11.0
12.33
16.0
10.67
4.67
6.0
8.0
18.0
1.67
3.0
6.67
1.33
5.33
-1.33
-5.0
4.33
12.0
11.67
25.67
27.33
23.67
22.0
3.33
11.0
1.0
-12.0
6.0
7.33
6.33
7.67
10.0
9.67
8.33
14.0
5.0
-0.33
-5.0
5.33
4.33
23.0
4.67
-2.67
-4.67
6.67
-0.67
9.33
-0.67
6.67
11.67
1.67
11.67
8.67
6.33
0.33
2.67
0.0
10.67
0.33
3.33
10.67
6.33
5.67
1.33
3.33
2.33
3.33
8.0
4.33
7.33
-9.0
4.0
-9.0
3.0
-1.33
0.0
0.0
4.67
2.33
1.0
1.67
-0.33
6.33
-5.0
4.0
-3.33
1.0
-0.33
-3.67
7.0
4.67
-1.33
2.67
-4.67
2.67
2.0
5.67