File: EDX Back Ups and Old Files/Spectra copy 3.3.23/Samples/High pH SF 60C 6d/8.5.txt
0.0
-131.33
-74.67
-5.67
-17.67
2.0
-0.67
0.0
1.0
-0.33
0.0
0.0
-0.33
-0.33
0.67
1.0
-1.0
3.33
0.67
0.33
-2.0
-2.0
-2.67
0.33
3.67
-5.0
2.67
-1.67
-3.0
5.33
6.33
5.0
-1.33
1.33
3.0
-4.0
-0.33
0.0
1.33
1.0
-1.33
3.67
-7.0
1.0
6.0
2.67
10.0
1.33
-2.67
7.33
8.33
1.0
3.33
4.0
3.67
-6.67
3.0
3.67
-1.0
1.0
2.67
7.33
1.0
-1.67
3.33
0.33
5.33
-1.0
0.0
-0.33
-2.67
-0.67
-3.0
-0.33
-1.67
0.67
-2.67
0.67
-2.0
2.0
-2.0
-1.67
-1.0
1.33
-1.0
-1.33
-5.0
-2.0
2.33
2.67
1.0
-3.33
-1.33
-3.33
-2.67
-1.67
-2.0
-2.67
-1.67
1.33
0.67
0.0
3.0
1.33
-8.67
-3.0
1.0
0.0
-4.67
2.67
-2.0
-1.67
2.67
0.0
9.0
14.67
31.0
17.0
4.67
-1.67
-4.0
-1.67
-0.33
-10.33
-7.33
-3.0
-2.0
-8.67
-3.0
-7.0
-8.67
-2.67
-9.33
-8.67
-6.33
-6.33
-4.67
-8.33
-2.67
1.33
-1.0
-5.0
-8.33
-3.0
1.33
-5.67
-3.33
12.33
12.67
20.33
2.67
14.0
-3.0
0.0
-1.33
0.0
8.67
1.67
-3.67
-1.33
-5.67
7.33
6.33
4.0
-1.67
4.0
2.0
-3.67
19.33
4.0
2.33
5.67
5.0
-5.0
8.67
4.67
6.33
6.0
1.67
2.33
4.67
5.67
15.0
5.0
14.33
37.33
41.33
92.0
102.0
97.33
52.67
14.33
22.67
10.33
9.0
0.0
2.67
-1.67
7.0
7.33
7.0
10.67
-0.33
5.0
14.0
-1.0
6.67
4.0
1.67
6.33
3.33
4.67
8.0
15.33
13.0
8.67
20.67
28.33
26.67
7.0
11.33
0.0
-3.0
-1.0
6.0
0.33
6.33
10.67
-2.0
10.67
10.33
12.0
1.0
3.67
-7.0
15.33
2.33
10.0
-0.33
-6.67
-1.67
-4.33
0.33
7.33
3.33
0.67
9.67
2.67
9.67
-3.33
2.33
8.33
5.67
17.0
1.67
5.33
-1.67
-1.33
-2.67
18.67
5.33
6.33
1.33
-5.67
0.0
-0.67
3.33
1.0
-1.0
-8.0
0.0
-0.33
3.0
-4.0
9.67
-2.67
-4.0
3.67
6.67
6.33
3.0
4.0
-0.33
2.0
-1.33
1.33
0.0
-2.33
-1.33
-0.33
1.33
1.67
0.0
0.67