File: EDX Back Ups and Old Files/Spectra copy 3.3.23/Samples/High pH SF 60C 6d/9.0.txt
0.0
-59.33
3.33
13.33
-14.67
-4.0
1.33
0.0
0.0
-0.33
0.0
1.0
-0.33
-1.33
-0.33
-1.0
2.0
0.33
-0.33
3.33
0.0
2.0
1.33
0.33
-1.33
14.0
0.67
-0.67
-4.0
10.33
4.33
2.0
2.67
-1.67
6.0
-1.0
2.67
2.0
9.33
4.0
-0.33
1.67
-4.0
1.0
-1.0
3.67
3.0
3.33
-4.67
3.33
4.33
3.0
5.33
4.0
0.67
3.33
-2.0
5.67
1.0
0.0
1.67
-1.67
-3.0
-0.67
3.33
2.33
2.33
2.0
-1.0
-3.33
1.33
-2.67
0.0
1.67
-7.67
-2.33
-4.67
1.67
0.0
1.0
-1.0
-0.67
0.0
0.33
-1.0
2.67
2.0
2.0
-0.67
-0.33
-2.0
-2.33
-4.33
-0.33
1.33
-2.67
-5.0
-2.67
-3.67
-0.67
-1.33
0.0
-7.0
-1.67
-5.67
-6.0
-10.0
-3.0
-3.67
3.67
-2.0
-9.67
-2.33
-2.0
4.0
10.67
24.0
13.0
3.67
1.33
-10.0
1.33
-9.33
-5.33
-9.33
0.0
5.0
-1.67
-5.0
-3.0
-7.67
-2.67
-10.33
-10.67
-6.33
1.67
1.33
-9.33
-3.67
0.33
-3.0
-12.0
-4.33
-2.0
3.33
0.33
-3.33
15.33
23.67
9.33
3.67
6.0
8.0
5.0
-1.33
-6.0
-1.33
6.67
3.33
3.67
-2.67
6.33
7.33
13.0
6.33
0.0
-2.0
-4.67
1.33
13.0
2.33
4.67
2.0
-4.0
8.67
2.67
-3.67
2.0
-3.33
9.33
4.67
2.67
1.0
15.0
14.33
26.33
57.33
114.0
130.0
108.33
57.67
28.33
22.67
3.33
6.0
3.0
-4.33
3.33
4.0
9.33
13.0
8.67
2.67
2.0
10.0
10.0
8.67
12.0
-1.33
11.33
2.33
8.67
9.0
14.33
18.0
0.67
13.67
29.33
5.67
30.0
16.33
15.0
2.0
-3.0
5.0
-2.67
11.33
3.67
-2.0
16.67
20.33
10.0
6.0
-1.33
7.0
6.33
-4.67
21.0
0.67
-5.67
1.33
-3.33
1.33
11.33
8.33
-0.33
2.67
2.67
16.67
9.67
0.33
-0.67
14.67
5.0
11.67
-2.67
10.33
-0.33
-5.67
3.67
4.33
7.33
6.33
-3.67
-2.0
-1.67
1.33
1.0
1.0
1.0
7.0
1.67
-4.0
4.0
7.67
6.33
6.0
-3.33
3.67
6.33
0.0
0.0
-2.33
0.0
3.67
3.33
-1.0
7.67
-0.33
0.67
-2.67
8.67
6.0
-0.33