File: EDX Back Ups and Old Files/Spectra copy 3.3.23/Samples/High pH SF 60C 6d/9.5.txt
0.0
-48.33
-13.67
33.33
12.33
-3.0
0.33
0.0
0.0
-0.33
0.0
0.0
-0.33
-0.33
0.67
0.0
-1.0
3.33
-3.33
0.33
0.0
-3.0
3.33
1.33
-0.33
0.0
5.67
-0.67
0.0
12.33
5.33
3.0
4.67
3.33
2.0
-2.0
-0.33
-3.0
7.33
6.0
5.67
2.67
-3.0
-3.0
0.0
-0.33
-1.0
0.33
-0.67
0.33
7.33
2.0
-1.67
3.0
1.67
-4.67
-3.0
4.67
-2.0
2.0
1.67
0.33
-3.0
-3.67
3.33
0.33
1.33
2.0
-4.0
0.67
-5.67
-0.67
0.0
-0.33
-0.67
-0.33
-1.67
-0.33
5.0
4.0
1.0
0.33
-1.0
-2.67
-2.0
1.67
-1.0
1.0
-2.67
-2.33
3.0
-3.33
-3.33
3.67
0.33
-2.67
1.0
-2.67
-6.67
0.33
-1.33
6.0
-7.0
2.33
-9.67
-1.0
4.0
-3.0
-7.67
2.67
4.0
-4.67
0.67
-1.0
6.0
0.67
16.0
13.0
-0.33
-1.67
-9.0
-1.67
-8.33
-5.33
-11.33
-7.0
-2.0
0.33
-2.0
-4.0
-3.67
-5.67
-8.33
-7.67
-5.33
-9.33
-4.67
0.67
-5.67
-1.67
-2.0
-8.0
-6.33
-8.0
-4.67
-0.67
4.67
12.33
17.67
10.33
-6.33
5.0
1.0
2.0
-1.33
-1.0
6.67
10.67
2.33
6.67
-12.67
6.33
-3.67
-2.0
0.33
2.0
-1.0
5.33
11.33
5.0
1.33
8.67
12.0
2.0
9.67
4.67
1.33
6.0
0.67
5.33
12.67
-5.33
9.0
11.0
8.33
21.33
56.33
96.0
133.0
105.33
74.67
15.33
13.67
8.33
12.0
6.0
-0.33
2.33
15.0
6.33
-2.0
7.67
3.67
11.0
5.0
7.0
6.67
10.0
-3.33
7.33
13.33
-5.33
8.0
6.33
1.0
3.67
12.67
26.33
23.67
22.0
24.33
5.0
-2.0
-4.0
2.0
8.33
25.33
1.67
2.0
7.67
12.33
22.0
-1.0
9.67
2.0
2.33
9.33
6.0
9.67
1.33
4.33
-1.33
-1.67
7.33
-8.67
5.67
10.67
3.67
6.67
2.67
5.33
-6.67
10.67
8.0
10.67
-0.67
1.33
4.67
-4.67
4.67
2.33
-1.67
2.33
-6.67
-2.0
2.33
3.33
1.0
-1.0
-1.0
1.0
0.67
-2.0
3.0
12.67
-4.67
-2.0
-1.33
3.67
7.33
0.0
0.0
4.67
2.0
0.67
6.33
1.0
5.67
-3.33
0.67
-2.67
1.67
-1.0
3.67