File: EDX Back Ups and Old Files/EDX Processed Data/.ipynb_checkpoints/High pH BL 25C 14d-checkpoint.txt
Name: High pH BL 25C 14d
Number of Scans: 29
Positions: [-13.0, -12.75, -12.5, -12.25, -12.0, -11.75, -11.5, -11.25, -11.0, -10.75, -10.5, -10.25, -10.0, -9.75, -9.5, -9.25, -9.0, -8.75, -8.5, -8.25, -8.0, -7.75, -7.5, -7.25, -7.0, -6.75, -6.5, -6.25, -6.0]
Points per Scan: 2048
Sample Edge: 3
Scans Off Sample: [0, 1, 2]
Conversion Features: [(275, 17444.3), (309, 19608.3), (913, 57981.7), (934, 59318.24), (1058, 67244.3)]
Degree of Fit: 3
Fit Coeffecients: [ 8.59183e-07 -0.001482  64.3003 -144.207]
pH: High
Steel Fiber: False
Aging Temp.: 25
Aging Atm.: 100% CO2
Aging Humidity: None
Aging Time: 14

*********
#Bins	Energy [keV]	Avg. Background	-12.25 [mm]	-12.0 [mm]	-11.75 [mm]	-11.5 [mm]	-11.25 [mm]	-11.0 [mm]	-10.75 [mm]	-10.5 [mm]	-10.25 [mm]	-10.0 [mm]	-9.75 [mm]	-9.5 [mm]	-9.25 [mm]	-9.0 [mm]	-8.75 [mm]	-8.5 [mm]	-8.25 [mm]	-8.0 [mm]	-7.75 [mm]	-7.5 [mm]	-7.25 [mm]	-7.0 [mm]	-6.75 [mm]	-6.5 [mm]	-6.25 [mm]	-6.0 [mm]
0	-0.144	0.0	0.0	0.0	0.0	0.0	0.0	0.0	0.0	0.0	0.0	0.0	0.0	0.0	0.0	0.0	0.0	0.0	0.0	0.0	0.0	0.0	0.0	0.0	0.0	0.0	0.0	0.0
31	1.848	18.67	5.33	-5.67	2.33	-4.67	-2.67	-1.67	-5.67	-0.67	-2.67	0.33	2.33	-2.67	-6.67	-4.67	2.33	-6.67	2.33	-0.67	-0.67	2.33	-6.67	-0.67	-3.67	-7.67	-5.67	-3.67
62	3.837	0.33	-0.33	-0.33	0.67	0.67	0.67	-0.33	1.67	-0.33	-0.33	-0.33	-0.33	-0.33	0.67	-0.33	-0.33	-0.33	-0.33	1.67	-0.33	-0.33	-0.33	0.67	-0.33	-0.33	-0.33	-0.33
93	5.824	1.33	-1.33	0.67	0.67	-1.33	-0.33	0.67	-1.33	-0.33	1.67	-1.33	0.67	-0.33	-1.33	-0.33	-0.33	-0.33	-0.33	-1.33	-1.33	-1.33	-1.33	0.67	0.67	-0.33	-0.33	-0.33
124	7.808	5.0	3.0	-1.0	1.0	1.0	-3.0	2.0	0.0	0.0	-1.0	-2.0	1.0	-3.0	0.0	3.0	-2.0	2.0	1.0	2.0	-2.0	-3.0	3.0	1.0	0.0	3.0	2.0	0.0
155	9.79	10.33	-5.33	-4.33	4.67	-1.33	2.67	0.67	1.67	3.67	1.67	-0.33	-3.33	2.67	-2.33	1.67	1.67	-1.33	-3.33	5.67	-3.33	5.67	6.67	-2.33	2.67	4.67	0.67	6.67
186	11.77	9.33	-0.33	1.67	-0.33	6.67	1.67	3.67	1.67	4.67	4.67	0.67	5.67	6.67	-0.33	0.67	10.67	4.67	2.67	0.67	-0.33	2.67	5.67	7.67	3.67	-1.33	-0.33	-0.33
217	13.748	10.67	7.33	3.33	-3.67	-2.67	9.33	2.33	-3.67	1.33	-0.67	7.33	-0.67	-3.67	-0.67	0.33	0.33	1.33	0.33	0.33	-1.67	4.33	1.33	3.33	3.33	-0.67	3.33	4.33
248	15.724	11.67	1.33	6.33	4.33	6.33	-4.67	-9.67	-0.67	1.33	1.33	-1.67	6.33	-2.67	-1.67	4.33	-1.67	-0.67	3.33	2.33	0.33	6.33	2.33	1.33	1.33	6.33	-1.67	-1.67
279	17.699	7.67	-1.67	7.33	4.33	6.33	0.33	5.33	4.33	7.33	12.33	7.33	1.33	7.33	0.33	-1.67	3.33	3.33	4.33	9.33	2.33	3.33	1.33	2.33	7.33	4.33	7.33	0.33
310	19.672	7.33	8.67	10.67	1.67	4.67	0.67	2.67	10.67	7.67	8.67	6.67	5.67	8.67	3.67	2.67	10.67	11.67	-1.33	10.67	6.67	7.67	4.67	11.67	4.67	8.67	5.67	7.67
341	21.644	9.33	2.67	-0.33	-1.33	-1.33	-1.33	1.67	-1.33	-0.33	4.67	-3.33	4.67	-2.33	1.67	5.67	2.67	1.67	1.67	7.67	1.67	-5.33	9.67	7.67	4.67	0.67	15.67	5.67
372	23.615	10.67	6.33	-7.67	-0.67	1.33	1.33	1.33	1.33	-2.67	0.33	-2.67	4.33	-0.67	0.33	-3.67	3.33	1.33	-6.67	-0.67	0.33	-6.67	1.33	-1.67	3.33	-1.67	-0.67	-1.67
403	25.584	8.33	2.67	-2.33	-2.33	0.67	2.67	-1.33	-1.33	2.67	1.67	6.67	5.67	0.67	3.67	2.67	4.67	-0.33	0.67	7.67	4.67	2.67	1.67	0.67	-0.33	5.67	5.67	1.67
434	27.553	7.67	0.33	-0.67	-1.67	0.33	-0.67	-1.67	1.33	-0.67	1.33	2.33	0.33	4.33	5.33	4.33	2.33	-1.67	8.33	2.33	-0.67	3.33	-4.67	-3.67	3.33	3.33	4.33	2.33
465	29.521	5.67	-1.67	-2.67	4.33	-1.67	2.33	-0.67	0.33	4.33	3.33	1.33	1.33	0.33	-0.67	4.33	5.33	-1.67	4.33	6.33	1.33	8.33	2.33	1.33	-0.67	7.33	2.33	1.33
496	31.489	4.33	-1.33	-0.33	2.67	1.67	3.67	1.67	6.67	-0.33	0.67	6.67	4.67	3.67	2.67	4.67	0.67	3.67	0.67	0.67	-0.33	-0.33	0.67	3.67	2.67	-0.33	4.67	5.67
527	33.456	6.33	1.67	-0.33	-2.33	-2.33	0.67	0.67	5.67	-0.33	-3.33	5.67	-1.33	-1.33	-2.33	-1.33	0.67	-1.33	-0.33	-1.33	4.67	-1.33	1.67	0.67	0.67	6.67	4.67	0.67
558	35.423	5.0	-2.0	2.0	-1.0	-2.0	3.0	-3.0	1.0	-4.0	2.0	1.0	2.0	0.0	-4.0	4.0	-3.0	-1.0	-2.0	0.0	5.0	3.0	6.0	7.0	5.0	-3.0	2.0	3.0
589	37.39	5.0	3.0	-2.0	3.0	1.0	-2.0	0.0	0.0	-1.0	-3.0	3.0	1.0	-4.0	2.0	1.0	1.0	7.0	5.0	0.0	6.0	3.0	-1.0	4.0	-1.0	5.0	0.0	-2.0
620	39.357	5.0	4.0	2.0	1.0	2.0	-1.0	0.0	-1.0	-1.0	3.0	-2.0	-2.0	0.0	0.0	1.0	0.0	2.0	4.0	0.0	-1.0	2.0	0.0	-2.0	10.0	0.0	2.0	2.0
651	41.324	7.33	-2.33	-2.33	-0.33	-1.33	-0.33	-1.33	3.67	-3.33	-0.33	-2.33	-1.33	-1.33	-4.33	-1.33	-2.33	-1.33	-0.33	-2.33	-3.33	-3.33	-2.33	-0.33	3.67	2.67	-4.33	8.67
682	43.292	5.0	-3.0	5.0	0.0	-2.0	-1.0	5.0	-4.0	-1.0	4.0	1.0	5.0	1.0	2.0	1.0	-1.0	-1.0	3.0	0.0	1.0	4.0	-3.0	2.0	-1.0	1.0	4.0	2.0
713	45.26	6.67	-1.67	-2.67	-1.67	3.33	4.33	-3.67	-1.67	5.33	2.33	2.33	-1.67	1.33	1.33	2.33	1.33	2.33	-0.67	5.33	0.33	-2.67	3.33	1.33	2.33	-3.67	-1.67	-1.67
744	47.229	6.33	-4.33	5.67	3.67	0.67	-6.33	0.67	4.67	0.67	0.67	0.67	5.67	-1.33	7.67	-3.33	-2.33	6.67	-0.33	2.67	-1.33	-0.33	-0.33	-2.33	3.67	4.67	0.67	0.67
775	49.198	10.33	-6.33	1.67	-2.33	5.67	4.67	-0.33	3.67	-1.33	0.67	-3.33	-1.33	0.67	-0.33	-4.33	-3.33	-1.33	3.67	-1.33	-0.33	2.67	0.67	-4.33	-3.33	0.67	8.67	-0.33
806	51.169	13.33	3.67	-0.33	-5.33	-1.33	6.67	11.67	23.67	5.67	9.67	18.67	23.67	16.67	10.67	24.67	14.67	18.67	24.67	13.67	18.67	8.67	16.67	16.67	14.67	14.67	8.67	15.67
837	53.141	12.0	-5.0	-4.0	2.0	10.0	2.0	1.0	3.0	13.0	3.0	-1.0	-4.0	10.0	1.0	5.0	-3.0	0.0	14.0	4.0	9.0	-4.0	7.0	-3.0	1.0	1.0	-3.0	8.0
868	55.114	10.33	2.67	2.67	5.67	3.67	3.67	1.67	-1.33	-1.33	0.67	3.67	1.67	0.67	3.67	0.67	-2.33	-4.33	-0.33	5.67	7.67	7.67	5.67	2.67	-1.33	-0.33	-0.33	4.67
899	57.088	10.0	-3.0	-1.0	1.0	8.0	-4.0	8.0	10.0	4.0	2.0	-1.0	2.0	2.0	-1.0	7.0	5.0	5.0	11.0	4.0	5.0	8.0	-1.0	5.0	3.0	5.0	5.0	2.0
930	59.064	13.33	12.67	-2.33	0.67	9.67	3.67	0.67	5.67	9.67	6.67	12.67	4.67	5.67	6.67	-1.33	1.67	7.67	0.67	1.67	8.67	3.67	8.67	7.67	2.67	1.67	8.67	7.67
961	61.042	12.33	-2.33	10.67	7.67	1.67	4.67	3.67	3.67	3.67	4.67	5.67	-4.33	5.67	1.67	-0.33	0.67	5.67	-1.33	-0.33	-1.33	5.67	3.67	3.67	0.67	2.67	1.67	1.67
992	63.022	11.33	4.67	7.67	4.67	12.67	1.67	-2.33	8.67	5.67	17.67	9.67	16.67	4.67	11.67	12.67	-0.33	5.67	-2.33	1.67	1.67	9.67	8.67	4.67	5.67	1.67	6.67	10.67
1023	65.004	13.67	7.33	22.33	6.33	25.33	12.33	16.33	25.33	11.33	14.33	2.33	17.33	11.33	11.33	12.33	7.33	7.33	15.33	10.33	4.33	9.33	13.33	12.33	7.33	2.33	12.33	3.33
1054	66.988	13.0	5.0	10.0	14.0	10.0	1.0	18.0	12.0	9.0	20.0	8.0	6.0	12.0	13.0	15.0	17.0	15.0	13.0	6.0	11.0	6.0	6.0	9.0	12.0	16.0	11.0	6.0
1085	68.974	14.33	7.67	10.67	0.67	11.67	2.67	7.67	5.67	-2.33	4.67	5.67	5.67	-0.33	10.67	10.67	4.67	11.67	3.67	4.67	10.67	5.67	4.67	9.67	11.67	9.67	7.67	8.67
1116	70.963	11.0	2.0	8.0	8.0	9.0	9.0	9.0	7.0	14.0	16.0	14.0	6.0	8.0	12.0	8.0	9.0	7.0	11.0	5.0	7.0	9.0	7.0	5.0	16.0	10.0	11.0	1.0
1147	72.955	29.33	-0.33	11.67	12.67	7.67	10.67	2.67	14.67	18.67	17.67	12.67	6.67	8.67	9.67	24.67	9.67	2.67	3.67	4.67	7.67	4.67	8.67	10.67	2.67	11.67	13.67	4.67
1178	74.95	36.33	0.67	13.67	13.67	0.67	9.67	6.67	7.67	10.67	12.67	1.67	13.67	-0.33	9.67	11.67	6.67	8.67	5.67	5.67	14.67	20.67	-1.33	1.67	18.67	10.67	-0.33	4.67
1209	76.947	15.0	1.0	6.0	11.0	2.0	9.0	2.0	-2.0	13.0	7.0	8.0	7.0	7.0	15.0	5.0	10.0	1.0	5.0	5.0	10.0	9.0	6.0	12.0	3.0	3.0	6.0	-4.0
1240	78.948	11.67	8.33	10.33	9.33	15.33	2.33	5.33	15.33	10.33	9.33	24.33	12.33	17.33	5.33	10.33	15.33	12.33	2.33	7.33	7.33	16.33	15.33	6.33	11.33	12.33	9.33	14.33
1271	80.952	13.67	11.33	16.33	0.33	6.33	15.33	17.33	21.33	18.33	29.33	11.33	14.33	15.33	20.33	17.33	12.33	18.33	21.33	10.33	17.33	11.33	14.33	15.33	8.33	22.33	16.33	8.33
1302	82.959	20.33	124.67	114.67	118.67	73.67	111.67	64.67	73.67	64.67	63.67	52.67	55.67	41.67	45.67	51.67	47.67	41.67	48.67	52.67	33.67	57.67	48.67	32.67	41.67	39.67	40.67	28.67
1333	84.97	27.33	76.67	102.67	75.67	65.67	74.67	52.67	60.67	60.67	36.67	54.67	28.67	36.67	28.67	30.67	25.67	19.67	27.67	45.67	34.67	34.67	26.67	20.67	34.67	32.67	52.67	29.67
1364	86.985	24.0	8.0	12.0	7.0	17.0	9.0	17.0	6.0	14.0	12.0	20.0	20.0	5.0	3.0	5.0	1.0	6.0	4.0	11.0	17.0	11.0	1.0	13.0	-5.0	8.0	4.0	18.0
1395	89.003	21.67	2.33	14.33	9.33	15.33	13.33	22.33	7.33	21.33	6.33	7.33	15.33	6.33	11.33	12.33	16.33	-1.67	13.33	3.33	12.33	15.33	8.33	15.33	8.33	15.33	10.33	17.33
1426	91.026	27.0	1.0	2.0	4.0	7.0	-1.0	10.0	9.0	1.0	7.0	6.0	6.0	1.0	0.0	-4.0	6.0	16.0	12.0	3.0	4.0	5.0	7.0	6.0	7.0	10.0	7.0	-3.0
1457	93.053	26.67	20.33	0.33	9.33	14.33	4.33	11.33	11.33	24.33	6.33	9.33	14.33	8.33	13.33	20.33	2.33	13.33	0.33	11.33	4.33	3.33	13.33	20.33	12.33	-0.67	10.33	18.33
1488	95.084	33.33	-1.33	6.67	0.67	8.67	-0.33	7.67	3.67	-7.33	4.67	5.67	11.67	0.67	2.67	-4.33	11.67	6.67	8.67	5.67	7.67	6.67	-8.33	3.67	6.67	7.67	2.67	11.67
1519	97.12	35.33	-6.33	3.67	-1.33	13.67	6.67	16.67	23.67	19.67	28.67	16.67	25.67	24.67	14.67	29.67	30.67	31.67	17.67	26.67	28.67	28.67	18.67	24.67	37.67	34.67	34.67	21.67
1550	99.16	33.67	2.33	0.33	-7.67	8.33	-5.67	10.33	9.33	9.33	4.33	8.33	-1.67	19.33	24.33	6.33	3.33	2.33	-2.67	6.33	-1.67	8.33	8.33	14.33	23.33	7.33	-1.67	1.33
1581	101.206	30.67	9.33	6.33	6.33	14.33	19.33	3.33	7.33	-9.67	9.33	2.33	1.33	11.33	3.33	1.33	8.33	4.33	14.33	9.33	12.33	8.33	13.33	10.33	24.33	2.33	10.33	-5.67
1612	103.256	29.67	7.33	10.33	12.33	-2.67	9.33	5.33	10.33	0.33	8.33	17.33	17.33	0.33	11.33	-1.67	10.33	12.33	2.33	5.33	7.33	6.33	15.33	14.33	12.33	8.33	16.33	5.33
1643	105.311	25.67	8.33	7.33	3.33	10.33	9.33	15.33	16.33	12.33	0.33	0.33	8.33	5.33	10.33	17.33	-3.67	9.33	3.33	14.33	14.33	9.33	3.33	-1.67	13.33	8.33	15.33	2.33
1674	107.372	22.67	4.33	19.33	7.33	7.33	15.33	6.33	11.33	8.33	7.33	15.33	10.33	4.33	9.33	26.33	0.33	9.33	4.33	6.33	0.33	17.33	4.33	14.33	13.33	11.33	16.33	1.33
1705	109.438	27.33	3.67	-1.33	-6.33	-0.33	1.67	-5.33	-3.33	-0.33	-0.33	-6.33	3.67	1.67	-2.33	1.67	-5.33	3.67	0.67	-1.33	-0.33	-2.33	-0.33	-0.33	0.67	8.67	-0.33	0.67
1736	111.51	23.0	4.0	18.0	7.0	3.0	3.0	7.0	7.0	15.0	5.0	0.0	0.0	0.0	11.0	6.0	-2.0	10.0	-2.0	2.0	2.0	13.0	5.0	6.0	-6.0	14.0	8.0	6.0
1767	113.587	26.0	4.0	7.0	10.0	1.0	-6.0	4.0	-10.0	-4.0	3.0	-5.0	-6.0	-9.0	-10.0	-3.0	-6.0	-9.0	-7.0	-1.0	4.0	-2.0	-1.0	5.0	2.0	0.0	-2.0	4.0
1798	115.671	17.0	3.0	6.0	-1.0	5.0	8.0	2.0	1.0	9.0	6.0	1.0	4.0	3.0	9.0	4.0	6.0	3.0	6.0	6.0	11.0	0.0	6.0	-1.0	10.0	4.0	-5.0	5.0
1829	117.76	16.0	1.0	-3.0	-3.0	0.0	11.0	-2.0	2.0	8.0	6.0	1.0	4.0	-3.0	2.0	5.0	0.0	3.0	-6.0	5.0	7.0	10.0	-4.0	8.0	14.0	6.0	0.0	3.0
1860	119.856	16.67	-0.67	-4.67	-6.67	-3.67	-6.67	7.33	-0.67	-1.67	-2.67	-2.67	-0.67	6.33	-4.67	2.33	-2.67	1.33	-1.67	-3.67	-2.67	0.33	11.33	-2.67	4.33	6.33	4.33	6.33
1891	121.958	9.0	1.0	4.0	1.0	5.0	4.0	4.0	8.0	10.0	5.0	6.0	11.0	6.0	4.0	7.0	6.0	6.0	7.0	12.0	10.0	10.0	12.0	-1.0	11.0	7.0	7.0	6.0
1922	124.067	12.33	3.67	9.67	2.67	8.67	2.67	6.67	2.67	-0.33	-3.33	3.67	-1.33	1.67	-4.33	5.67	4.67	3.67	10.67	3.67	5.67	-0.33	2.67	0.67	-0.33	3.67	1.67	5.67
1953	126.182	7.67	0.33	5.33	9.33	3.33	2.33	-1.67	5.33	8.33	2.33	3.33	5.33	5.33	8.33	0.33	7.33	4.33	5.33	6.33	0.33	-0.67	5.33	4.33	6.33	1.33	0.33	5.33
1984	128.304	8.67	-0.67	1.33	7.33	0.33	0.33	1.33	-5.67	-0.67	3.33	4.33	-0.67	4.33	0.33	4.33	3.33	4.33	2.33	1.33	-0.67	0.33	3.33	0.33	5.33	3.33	5.33	6.33
2015	130.433	9.0	5.0	3.0	-1.0	7.0	-3.0	2.0	0.0	6.0	-2.0	3.0	1.0	-1.0	-2.0	-1.0	4.0	1.0	0.0	3.0	2.0	8.0	-2.0	1.0	5.0	3.0	-3.0	6.0
2046	132.569	10.67	-1.67	0.33	-0.67	-5.67	-8.67	1.33	-0.67	-0.67	5.33	3.33	-3.67	-3.67	-6.67	-4.67	-1.67	-3.67	-3.67	-5.67	-4.67	1.33	-1.67	1.33	-1.67	-5.67	6.33	2.33
2047	132.638	10.67	-3.67	-3.67	-5.67	-4.67	-3.67	-5.67	-3.67	-3.67	-4.67	-6.67	-2.67	3.33	0.33	-1.67	-1.67	0.33	-2.67	-4.67	1.33	-0.67	-1.67	-0.67	-1.67	1.33	-4.67	-0.67