File: EDX Back Ups and Old Files/EDX Processed Data/.ipynb_checkpoints/High pH SF 25C 6d-checkpoint.txt
Name: High pH SF 25C 6d
Number of Scans: 29
Positions: [-13.0, -12.75, -12.5, -12.25, -12.0, -11.75, -11.5, -11.25, -11.0, -10.75, -10.5, -10.25, -10.0, -9.75, -9.5, -9.25, -9.0, -8.75, -8.5, -8.25, -8.0, -7.75, -7.5, -7.25, -7.0, -6.75, -6.5, -6.25, -6.0]
Points per Scan: 2048
Sample Edge: 3
Scans Off Sample: [0, 1, 2]
Conversion Features: [(275, 17444.3), (309, 19608.3), (913, 57981.7), (934, 59318.24), (1058, 67244.3)]
Degree of Fit: 3
Fit Coeffecients: [ 8.59183e-07 -0.001482  64.3003 -144.207]
pH: High
Steel Fiber: True
Aging Temp.: 25
Aging Atm.: 100% CO2
Aging Humidity: None
Aging Time: 6

*********
#Bins	Energy [keV]	Avg. Background	-12.25 [mm]	-12.0 [mm]	-11.75 [mm]	-11.5 [mm]	-11.25 [mm]	-11.0 [mm]	-10.75 [mm]	-10.5 [mm]	-10.25 [mm]	-10.0 [mm]	-9.75 [mm]	-9.5 [mm]	-9.25 [mm]	-9.0 [mm]	-8.75 [mm]	-8.5 [mm]	-8.25 [mm]	-8.0 [mm]	-7.75 [mm]	-7.5 [mm]	-7.25 [mm]	-7.0 [mm]	-6.75 [mm]	-6.5 [mm]	-6.25 [mm]	-6.0 [mm]
0	-0.144207	0.0	0.0	0.0	0.0	0.0	0.0	0.0	0.0	0.0	0.0	0.0	0.0	0.0	0.0	0.0	0.0	0.0	0.0	0.0	0.0	0.0	0.0	0.0	0.0	0.0	0.0	0.0
32	1.91191	14.33	-0.33	-3.33	-0.33	-5.33	2.67	-3.33	-0.33	6.67	1.67	-1.33	-7.33	-7.33	-4.33	-0.33	-4.33	-4.33	-2.33	0.67	0.67	-2.33	1.67	4.67	0.67	0.67	0.67	-4.33
64	3.96517	0.33	-0.33	0.67	-0.33	-0.33	0.67	-0.33	-0.33	-0.33	-0.33	-0.33	-0.33	0.67	0.67	0.67	-0.33	-0.33	2.67	-0.33	0.67	-0.33	1.67	-0.33	0.67	-0.33	-0.33	-0.33
96	6.01573	0.33	-0.33	-0.33	1.67	0.67	1.67	-0.33	2.67	-0.33	0.67	1.67	-0.33	0.67	0.67	-0.33	-0.33	-0.33	0.67	0.67	-0.33	-0.33	-0.33	1.67	-0.33	2.67	0.67	0.67
128	8.06376	7.0	-1.0	-3.0	0.0	-3.0	2.0	-5.0	0.0	-5.0	-2.0	-1.0	-3.0	-2.0	-1.0	-1.0	-1.0	-4.0	-1.0	-3.0	3.0	1.0	-2.0	-3.0	-1.0	2.0	0.0	-1.0
160	10.1094	11.33	2.67	-7.33	-2.33	0.67	1.67	-0.33	5.67	0.67	-1.33	2.67	-0.33	2.67	-4.33	2.67	-2.33	1.67	-0.33	-1.33	0.67	1.67	1.67	-1.33	-3.33	-1.33	-6.33	3.67
192	12.1529	9.67	1.33	-2.67	3.33	6.33	2.33	1.33	3.33	1.33	12.33	6.33	1.33	1.33	1.33	3.33	-1.67	10.33	7.33	5.33	4.33	10.33	-1.67	3.33	6.33	7.33	2.33	2.33
224	14.1944	10.33	1.67	0.67	0.67	6.67	1.67	4.67	-4.33	-3.33	-0.33	4.67	-2.33	1.67	0.67	1.67	4.67	1.67	3.67	2.67	-1.33	0.67	2.67	-0.33	-3.33	4.67	0.67	0.67
256	16.234	15.0	-9.0	0.0	-6.0	-1.0	-6.0	-3.0	-4.0	-4.0	1.0	-5.0	-9.0	-3.0	-8.0	-2.0	-6.0	-5.0	-4.0	-3.0	-6.0	-2.0	-2.0	-1.0	-1.0	-5.0	-6.0	-4.0
288	18.2719	12.0	2.0	-2.0	3.0	0.0	3.0	2.0	5.0	-3.0	-2.0	0.0	3.0	1.0	0.0	1.0	-2.0	-1.0	2.0	2.0	-1.0	7.0	0.0	-2.0	8.0	-2.0	2.0	4.0
320	20.3083	8.0	7.0	5.0	0.0	7.0	6.0	7.0	-1.0	-1.0	0.0	0.0	4.0	10.0	8.0	5.0	4.0	7.0	9.0	-3.0	10.0	3.0	4.0	1.0	8.0	9.0	10.0	8.0
352	22.3434	7.0	4.0	-2.0	1.0	0.0	3.0	1.0	0.0	2.0	7.0	6.0	7.0	5.0	6.0	4.0	1.0	2.0	5.0	7.0	-1.0	1.0	10.0	5.0	-1.0	5.0	-1.0	9.0
384	24.3772	9.33	-4.33	-1.33	0.67	-3.33	-1.33	-0.33	-4.33	-6.33	-0.33	-5.33	-2.33	-1.33	0.67	1.67	4.67	-4.33	-4.33	0.67	1.67	1.67	-2.33	-3.33	2.67	1.67	-2.33	-0.33
416	26.4101	8.0	4.0	0.0	0.0	-3.0	0.0	2.0	3.0	-3.0	5.0	1.0	-1.0	-1.0	1.0	8.0	3.0	4.0	2.0	1.0	4.0	-1.0	-2.0	1.0	2.0	-1.0	3.0	2.0
448	28.4422	8.33	3.67	-1.33	0.67	-0.33	-5.33	4.67	1.67	-3.33	-3.33	2.67	1.67	0.67	1.67	-2.33	-3.33	0.67	1.67	4.67	4.67	0.67	-2.33	-0.33	-0.33	-2.33	-3.33	-1.33
480	30.4735	7.0	0.0	1.0	1.0	0.0	-1.0	-1.0	0.0	-4.0	-2.0	2.0	4.0	4.0	-6.0	1.0	-3.0	-2.0	-4.0	-3.0	2.0	-1.0	3.0	2.0	1.0	3.0	3.0	4.0
512	32.5044	5.67	6.33	1.33	1.33	-1.67	2.33	0.33	0.33	4.33	3.33	-0.67	-1.67	3.33	-0.67	0.33	0.33	5.33	5.33	0.33	-1.67	-1.67	9.33	3.33	1.33	3.33	1.33	3.33
544	34.5349	5.0	-3.0	5.0	-2.0	-2.0	9.0	0.0	3.0	-2.0	2.0	-2.0	-2.0	0.0	0.0	-2.0	3.0	1.0	-2.0	1.0	0.0	0.0	0.0	1.0	2.0	0.0	-1.0	-1.0
576	36.5653	5.67	1.33	1.33	0.33	2.33	1.33	-1.67	0.33	-0.67	7.33	-1.67	-2.67	1.33	0.33	-1.67	-4.67	-1.67	1.33	1.33	-0.67	-2.67	4.33	-0.67	1.33	1.33	1.33	2.33
608	38.5957	5.0	-2.0	-4.0	3.0	2.0	0.0	-2.0	2.0	3.0	0.0	2.0	0.0	1.0	-1.0	1.0	-5.0	0.0	-1.0	0.0	1.0	-4.0	2.0	0.0	1.0	2.0	2.0	4.0
640	40.6262	8.0	-1.0	-3.0	-2.0	-4.0	0.0	-3.0	-7.0	-5.0	1.0	-3.0	-1.0	-4.0	7.0	-4.0	-8.0	-3.0	-4.0	-4.0	1.0	-3.0	1.0	-2.0	2.0	-3.0	-2.0	-6.0
672	42.6571	5.67	-1.67	2.33	-0.67	1.33	-3.67	1.33	0.33	3.33	2.33	-0.67	0.33	-0.67	2.33	-2.67	-1.67	0.33	-2.67	-1.67	0.33	4.33	-1.67	-0.67	2.33	4.33	1.33	5.33
704	44.6885	7.33	-2.33	1.67	-3.33	-1.33	2.67	1.67	0.67	1.67	-5.33	7.67	-1.33	5.67	-4.33	1.67	3.67	-0.33	0.67	-1.33	3.67	-2.33	-2.33	1.67	-2.33	7.67	-1.33	2.67
736	46.7206	7.67	-3.67	0.33	2.33	-0.67	0.33	4.33	0.33	0.33	11.33	2.33	-3.67	-1.67	-3.67	-1.67	1.33	-2.67	0.33	3.33	-1.67	6.33	4.33	-2.67	4.33	4.33	0.33	-3.67
768	48.7535	8.0	-1.0	2.0	2.0	-1.0	1.0	0.0	-5.0	-2.0	-2.0	2.0	1.0	2.0	-3.0	0.0	2.0	-4.0	-5.0	4.0	-1.0	-4.0	-4.0	3.0	1.0	2.0	5.0	4.0
800	50.7875	12.67	-0.67	-5.67	-8.67	-5.67	-1.67	0.33	1.33	5.33	4.33	10.33	4.33	8.33	3.33	0.33	3.33	3.33	6.33	5.33	3.33	0.33	16.33	1.33	4.33	9.33	-3.67	4.33
832	52.8226	17.33	-8.33	-9.33	-8.33	-12.33	-5.33	-4.33	-3.33	-7.33	1.67	-7.33	4.67	-0.33	-2.33	-6.33	-3.33	-4.33	-4.33	-8.33	-6.33	-6.33	-4.33	-4.33	-0.33	-6.33	-8.33	-5.33
864	54.8591	17.0	-9.0	-9.0	-7.0	-3.0	-7.0	-7.0	-8.0	-7.0	-10.0	-2.0	-7.0	-3.0	-1.0	4.0	-2.0	-7.0	-4.0	-4.0	-11.0	-11.0	-10.0	-3.0	-2.0	-3.0	2.0	-8.0
896	56.8972	12.33	5.67	1.67	-0.33	4.67	3.67	5.67	2.67	6.67	0.67	-2.33	0.67	4.67	-2.33	-2.33	-2.33	-2.33	2.67	4.67	-2.33	-3.33	2.67	-0.33	-2.33	-4.33	1.67	-0.33
928	58.9369	14.67	4.33	5.33	0.33	2.33	10.33	9.33	8.33	0.33	5.33	3.33	-0.67	2.33	9.33	3.33	-0.67	-1.67	1.33	0.33	-4.67	12.33	17.33	0.33	2.33	12.33	2.33	3.33
960	60.9785	17.0	-7.0	4.0	-5.0	4.0	0.0	-5.0	-6.0	-3.0	-1.0	-2.0	-1.0	0.0	-8.0	-3.0	5.0	-4.0	-11.0	-10.0	-3.0	0.0	0.0	-6.0	-4.0	1.0	-8.0	-7.0
992	63.0221	17.67	9.33	-1.67	1.33	1.33	0.33	4.33	-1.67	2.33	-0.67	-3.67	-4.67	5.33	0.33	-5.67	-7.67	-4.67	-3.67	3.33	-4.67	-4.67	-2.67	2.33	2.33	4.33	-6.67	2.33
1024	65.0679	12.67	16.33	12.33	21.33	18.33	25.33	13.33	11.33	14.33	17.33	20.33	12.33	7.33	15.33	15.33	14.33	9.33	10.33	4.33	10.33	4.33	5.33	1.33	17.33	5.33	5.33	14.33
1056	67.1161	20.0	2.0	1.0	5.0	2.0	2.0	7.0	8.0	11.0	11.0	7.0	6.0	-2.0	-6.0	4.0	-7.0	2.0	2.0	1.0	4.0	14.0	-1.0	5.0	-3.0	1.0	5.0	6.0
1088	69.1668	13.33	7.67	8.67	6.67	-0.33	17.67	3.67	8.67	11.67	4.67	6.67	7.67	6.67	4.67	9.67	7.67	5.67	-0.33	2.67	-0.33	9.67	7.67	8.67	8.67	13.67	7.67	3.67
1120	71.2202	16.0	2.0	1.0	-6.0	2.0	-3.0	4.0	-2.0	2.0	-4.0	3.0	2.0	4.0	5.0	8.0	-3.0	8.0	-3.0	-4.0	5.0	-2.0	-3.0	-5.0	0.0	-2.0	10.0	4.0
1152	73.2766	22.67	5.33	5.33	15.33	19.33	-2.67	2.33	14.33	-1.67	17.33	10.33	5.33	18.33	13.33	11.33	8.33	10.33	3.33	9.33	13.33	14.33	16.33	11.33	7.33	4.33	5.33	7.33
1184	75.3359	42.0	-7.0	-3.0	5.0	4.0	7.0	20.0	12.0	18.0	14.0	-4.0	2.0	-8.0	12.0	0.0	14.0	17.0	10.0	-5.0	-5.0	5.0	12.0	20.0	0.0	7.0	5.0	13.0
1216	77.3985	15.0	-1.0	1.0	7.0	15.0	5.0	9.0	3.0	-1.0	11.0	9.0	-2.0	7.0	15.0	8.0	8.0	6.0	3.0	5.0	5.0	11.0	4.0	5.0	6.0	16.0	4.0	8.0
1248	79.4644	13.67	5.33	9.33	8.33	5.33	8.33	8.33	13.33	14.33	13.33	1.33	8.33	14.33	5.33	9.33	11.33	7.33	7.33	-1.67	6.33	-1.67	6.33	0.33	8.33	6.33	8.33	15.33
1280	81.534	15.33	6.67	13.67	17.67	10.67	7.67	10.67	20.67	11.67	8.67	23.67	19.67	15.67	19.67	13.67	13.67	7.67	20.67	14.67	4.67	15.67	10.67	13.67	21.67	16.67	21.67	2.67
1312	83.6072	20.0	166.0	252.0	245.0	225.0	231.0	182.0	219.0	167.0	136.0	110.0	122.0	93.0	97.0	83.0	87.0	89.0	83.0	113.0	83.0	99.0	87.0	99.0	78.0	106.0	86.0	83.0
1344	85.6843	27.67	2.33	1.33	-1.67	2.33	8.33	6.33	14.33	7.33	15.33	13.33	8.33	10.33	0.33	15.33	10.33	23.33	4.33	1.33	21.33	16.33	13.33	10.33	10.33	15.33	16.33	4.33
1376	87.7655	25.0	-1.0	3.0	-2.0	23.0	10.0	15.0	17.0	9.0	7.0	14.0	13.0	11.0	4.0	8.0	14.0	19.0	15.0	9.0	0.0	6.0	8.0	0.0	2.0	7.0	12.0	12.0
1408	89.8509	22.67	4.33	3.33	15.33	8.33	10.33	3.33	1.33	4.33	4.33	10.33	10.33	9.33	3.33	5.33	5.33	9.33	0.33	2.33	9.33	-2.67	-3.67	11.33	6.33	13.33	0.33	20.33
1440	91.9407	29.67	-4.67	3.33	-1.67	3.33	9.33	-5.67	5.33	-1.67	-2.67	1.33	2.33	-2.67	-3.67	8.33	2.33	-5.67	12.33	11.33	7.33	17.33	-4.67	-6.67	5.33	2.33	4.33	4.33
1472	94.0351	23.67	5.33	3.33	11.33	10.33	6.33	16.33	7.33	15.33	23.33	7.33	12.33	5.33	12.33	9.33	10.33	6.33	5.33	4.33	15.33	4.33	0.33	17.33	10.33	11.33	17.33	11.33
1504	96.1342	32.0	3.0	10.0	9.0	-1.0	3.0	0.0	7.0	13.0	8.0	15.0	5.0	16.0	10.0	11.0	26.0	11.0	14.0	25.0	14.0	5.0	10.0	15.0	11.0	17.0	23.0	10.0
1536	98.2382	29.0	-12.0	4.0	6.0	3.0	3.0	-1.0	12.0	20.0	13.0	16.0	27.0	14.0	15.0	22.0	4.0	23.0	14.0	19.0	16.0	18.0	24.0	14.0	15.0	31.0	19.0	20.0
1568	100.347	27.0	5.0	5.0	2.0	-3.0	11.0	6.0	4.0	1.0	4.0	9.0	12.0	6.0	6.0	9.0	9.0	16.0	17.0	3.0	21.0	3.0	10.0	9.0	13.0	18.0	19.0	16.0
1600	102.462	30.33	7.67	29.67	12.67	1.67	-1.33	13.67	5.67	24.67	4.67	7.67	10.67	2.67	6.67	-1.33	12.67	11.67	2.67	3.67	6.67	8.67	5.67	10.67	-0.33	13.67	6.67	5.67
1632	104.581	25.33	10.67	-0.33	-1.33	9.67	12.67	13.67	-5.33	-0.33	-0.33	1.67	4.67	3.67	12.67	9.67	-2.33	5.67	18.67	2.67	6.67	8.67	2.67	5.67	7.67	15.67	13.67	4.67
1664	106.707	27.33	1.67	-9.33	-8.33	3.67	2.67	-5.33	4.67	9.67	-5.33	1.67	0.67	-5.33	-2.33	11.67	6.67	-2.33	-3.33	1.67	8.67	8.67	0.67	8.67	-2.33	6.67	4.67	7.67
1696	108.838	20.33	8.67	2.67	5.67	1.67	3.67	1.67	-2.33	8.67	-3.33	5.67	-1.33	0.67	3.67	5.67	7.67	6.67	13.67	13.67	1.67	7.67	4.67	5.67	3.67	13.67	-2.33	8.67
1728	110.975	19.0	13.0	5.0	2.0	15.0	6.0	4.0	11.0	1.0	5.0	-4.0	13.0	3.0	4.0	-2.0	6.0	17.0	4.0	-5.0	10.0	13.0	-2.0	4.0	5.0	11.0	10.0	9.0
1760	113.118	19.0	-8.0	4.0	8.0	14.0	5.0	6.0	-2.0	5.0	5.0	-3.0	4.0	6.0	2.0	2.0	2.0	7.0	0.0	11.0	8.0	13.0	7.0	9.0	3.0	8.0	3.0	6.0
1792	115.267	14.0	7.0	14.0	8.0	8.0	-1.0	6.0	0.0	11.0	0.0	0.0	10.0	4.0	9.0	7.0	5.0	-3.0	0.0	3.0	4.0	0.0	5.0	7.0	6.0	3.0	-1.0	-1.0
1824	117.423	18.33	2.67	-0.33	-4.33	-2.33	-1.33	2.67	8.67	0.67	-1.33	1.67	2.67	1.67	2.67	1.67	-5.33	-3.33	-4.33	4.67	-3.33	3.67	6.67	0.67	-1.33	-2.33	1.67	2.67
1856	119.585	12.67	7.33	-0.67	5.33	6.33	2.33	2.33	-0.67	-3.67	0.33	-1.67	5.33	7.33	1.33	-0.67	4.33	5.33	-2.67	6.33	6.33	7.33	-0.67	6.33	-0.67	12.33	8.33	3.33
1888	121.754	13.67	-0.67	3.33	2.33	3.33	-0.67	4.33	-3.67	-3.67	-0.67	-2.67	2.33	-0.67	-1.67	-0.67	-5.67	-5.67	2.33	-1.67	6.33	1.33	2.33	12.33	-4.67	-6.67	-0.67	-0.67
1920	123.93	12.33	0.67	7.67	4.67	-0.33	8.67	3.67	2.67	1.67	1.67	2.67	-5.33	2.67	-5.33	-1.33	4.67	8.67	1.67	-1.33	-2.33	-6.33	6.67	-1.33	4.67	-5.33	1.67	2.67
1952	126.114	11.67	0.33	-1.67	3.33	-5.67	-0.67	4.33	-2.67	3.33	4.33	6.33	3.33	-3.67	8.33	1.33	4.33	0.33	-1.67	4.33	-5.67	-3.67	2.33	0.33	-0.67	-1.67	-1.67	-2.67
1984	128.304	9.33	-0.33	2.67	-0.33	1.67	-0.33	-0.33	5.67	0.67	1.67	4.67	-0.33	0.67	4.67	0.67	-0.33	5.67	8.67	-4.33	1.67	-0.33	-1.33	2.67	1.67	2.67	5.67	6.67
2016	130.502	7.33	0.67	0.67	-1.33	4.67	-0.33	1.67	-2.33	1.67	-1.33	-2.33	1.67	-0.33	1.67	-1.33	2.67	5.67	3.67	5.67	4.67	0.67	-2.33	1.67	4.67	1.67	6.67	5.67
2047	132.638	9.0	1.0	2.0	-2.0	-2.0	2.0	-1.0	0.0	0.0	-6.0	0.0	1.0	0.0	-3.0	1.0	-2.0	-1.0	-2.0	-2.0	-1.0	2.0	0.0	-1.0	-1.0	1.0	0.0	-2.0