File: EDX Back Ups and Old Files/Spectra copy 3.3.23/Samples/High pH BL 25C 14d/10.0.txt
0.0
-18.67
-25.67
2.0
-6.0
-0.33
1.0
1.0
1.0
0.67
1.0
0.67
0.67
-0.67
0.0
-1.0
-1.67
2.33
3.0
5.33
-4.33
2.0
-2.33
-2.33
3.0
2.33
-2.33
10.33
-6.33
2.67
7.67
7.33
2.0
1.0
2.67
-0.67
6.67
-1.67
1.33
-3.33
6.33
4.33
4.0
-0.67
4.33
-3.33
10.67
-5.67
-0.33
-1.33
-6.0
-1.67
-6.33
2.0
-1.33
2.33
0.0
7.0
1.33
-0.67
1.33
3.0
2.33
-0.33
5.33
5.33
1.0
0.33
2.33
2.0
-5.0
-0.33
3.33
1.67
-2.0
-3.67
4.67
-2.67
2.67
1.0
3.67
-1.33
2.0
3.0
6.33
3.67
-0.33
1.67
-3.0
2.33
1.67
-1.0
-1.0
-2.33
-1.33
2.67
-3.67
0.33
-2.67
-3.33
-1.33
-1.33
-6.33
3.0
7.67
4.67
1.67
3.0
-3.67
1.0
2.0
4.67
-1.33
11.67
2.33
17.0
40.67
30.67
8.0
1.0
-7.67
3.33
-1.67
-0.67
3.67
-5.0
3.67
-6.0
-3.67
3.33
2.67
-1.67
1.0
-8.0
4.33
6.0
4.67
1.67
-1.0
3.67
-0.33
-6.0
5.67
8.67
0.0
7.33
21.0
13.33
23.33
24.0
7.33
13.0
8.0
-1.0
4.67
5.67
9.0
14.0
7.0
11.33
3.67
7.67
2.67
10.0
7.0
15.0
16.33
10.0
11.33
10.67
11.67
22.33
5.0
5.0
7.0
14.67
15.33
13.33
7.67
0.67
7.0
3.0
0.33
16.0
23.33
30.67
52.67
95.0
147.67
125.67
70.33
25.33
5.0
16.67
14.33
5.0
5.67
-3.33
8.0
10.67
19.0
5.33
13.67
10.0
16.33
2.0
5.67
13.33
7.67
8.0
8.0
5.0
8.33
6.0
2.0
16.33
26.0
16.67
24.67
20.33
11.33
20.67
3.0
9.67
13.67
14.0
17.0
9.67
14.0
-11.0
-4.33
3.0
12.0
9.67
4.33
4.67
2.67
6.33
-7.67
15.0
15.33
-4.0
14.67
3.33
-5.0
1.67
-1.33
7.67
0.0
9.67
8.0
9.0
0.67
4.0
2.67
2.0
1.33
-0.67
11.0
7.33
11.0
2.67
4.33
-7.0
5.67
-3.0
1.33
0.0
3.0
-5.0
6.33
0.67
0.0
-0.33
2.67
-3.0
-6.67
-4.33
-3.67
3.33
-0.33
4.33
-2.67
5.33
-5.33
-1.0
1.67
0.0
4.33
4.0
4.0
3.33
-0.67
-6.67