File: EDX Back Ups and Old Files/Spectra copy 3.3.23/Samples/High pH BL 25C 14d/10.5.txt
0.0
37.33
19.33
-5.0
-14.0
-4.33
0.0
1.0
0.0
-0.33
1.0
-0.33
-0.33
0.33
-1.0
1.0
-2.67
3.33
2.0
-3.67
-0.33
1.0
-2.33
1.67
3.0
0.33
-5.33
4.33
-3.33
4.67
-1.33
1.33
-2.0
-1.0
1.67
2.33
8.67
-1.67
7.33
-4.33
10.33
7.33
-1.0
6.33
4.33
5.67
6.67
-1.67
3.67
-2.33
-7.0
3.33
1.67
1.0
2.67
5.33
2.0
-2.0
1.33
2.33
7.33
-1.0
-0.67
-2.33
0.33
1.33
-2.0
0.33
0.33
4.0
-3.0
5.67
-1.67
2.67
1.0
-3.67
5.67
-2.67
-2.33
-1.0
2.67
3.67
2.0
5.0
1.33
-0.33
-0.33
0.67
2.0
-2.67
-0.33
1.0
2.0
-3.33
-3.33
4.67
-1.67
-3.67
2.33
-2.33
-3.33
5.67
-0.33
-3.0
0.67
2.67
-2.33
-3.0
0.33
1.0
-4.0
4.67
1.67
1.67
6.33
39.0
27.67
26.67
8.0
3.0
10.33
5.33
1.33
5.33
-1.33
-4.0
5.67
2.0
-0.67
5.33
0.67
-1.67
9.0
-3.0
-2.67
-5.0
0.67
-0.33
2.0
-2.33
1.67
1.0
4.67
4.67
2.0
10.33
13.0
26.33
24.33
20.0
8.33
5.0
1.0
-1.0
4.67
-2.33
4.0
3.0
11.0
6.33
9.67
14.67
7.67
15.0
2.0
15.0
7.33
16.0
4.33
2.67
17.67
7.33
1.0
4.0
7.0
2.67
15.33
27.33
0.67
15.67
8.0
9.0
5.33
20.0
21.33
33.67
64.67
120.0
143.67
137.67
94.33
24.33
16.0
18.67
13.33
10.0
11.67
7.67
-7.0
8.67
5.0
-4.67
1.67
11.0
6.33
4.0
12.67
4.33
2.67
7.0
-1.0
12.0
2.33
12.0
-4.0
22.33
25.0
19.67
21.67
17.33
2.33
-7.33
3.0
9.67
1.67
2.0
10.0
3.67
5.0
1.0
0.67
10.0
10.0
9.67
14.33
10.67
-8.33
-2.67
4.33
8.0
1.33
-10.0
11.67
4.33
-3.0
0.67
1.67
10.67
15.0
20.67
4.0
-2.0
11.67
1.0
-0.33
-1.0
4.33
-1.67
3.0
-2.67
0.0
0.67
0.33
-1.0
-0.33
-6.0
2.33
0.0
3.0
5.0
0.33
4.67
1.0
1.67
8.67
1.0
4.33
0.67
-8.67
8.33
4.67
1.33
1.33
4.33
0.67
6.0
-0.33
2.0
-2.67
8.0
4.0
2.33
2.33
-3.67