File: EDX Back Ups and Old Files/Spectra copy 3.3.23/Samples/High pH BL 25C 14d/8.25.txt
0.0
73.33
77.33
13.0
-4.0
-0.33
0.0
1.0
0.0
0.67
0.0
-0.33
0.67
0.33
-1.0
0.0
-1.67
-0.67
1.0
4.33
-3.33
3.0
-4.33
-0.33
14.0
5.33
0.67
8.33
1.67
8.67
-1.33
0.33
-3.0
1.0
-0.33
7.33
0.67
-2.67
4.33
2.67
1.33
6.33
3.0
2.33
-0.67
-2.33
9.67
0.33
0.67
-0.33
-2.0
0.33
0.67
8.0
3.67
-0.67
4.0
9.0
0.33
-1.67
4.33
3.0
8.33
1.67
0.33
2.33
2.0
-2.67
0.33
0.0
-1.0
0.67
3.33
-0.33
0.0
-1.67
2.67
3.33
3.67
-5.0
-0.33
-1.33
-1.0
2.0
3.33
3.67
0.67
-1.33
3.0
0.33
2.67
0.0
-2.0
-0.33
-0.33
-1.33
-1.67
-0.67
1.33
-3.33
-4.33
-2.33
-1.33
-2.0
1.67
4.67
-2.33
0.0
4.33
-2.0
2.0
4.67
-0.33
2.67
0.33
3.0
26.67
18.67
-1.0
0.0
0.33
0.33
-4.67
-0.67
-0.33
0.0
-1.33
-2.0
-3.67
0.33
6.67
-9.67
5.0
-5.0
10.33
-2.0
3.67
3.67
5.0
4.67
4.67
0.0
-1.33
-2.33
6.0
5.33
9.0
12.33
20.33
11.0
3.33
5.0
3.0
-6.0
4.67
3.67
6.0
4.0
6.0
16.33
2.67
4.67
9.67
12.0
10.0
22.0
9.33
15.0
7.33
1.67
2.67
9.33
18.0
-6.0
5.0
0.67
9.33
16.33
10.67
6.67
10.0
6.0
23.33
15.0
28.33
18.67
48.67
93.0
105.67
65.67
67.33
14.33
24.0
7.67
11.33
4.0
20.67
7.67
-4.0
6.67
13.0
10.33
4.67
11.0
19.33
18.0
13.67
0.33
1.67
12.0
7.0
1.0
11.33
13.0
19.0
20.33
23.0
17.67
18.67
20.33
15.33
11.67
1.0
8.67
6.67
-1.0
17.0
6.67
1.0
-2.0
8.67
4.0
19.0
2.67
6.33
2.67
0.67
6.33
10.33
-4.0
5.33
5.0
-0.33
9.33
-5.0
5.67
-4.33
10.67
-2.0
9.67
3.0
9.0
0.67
9.0
-1.33
12.0
-9.67
5.33
3.0
10.33
1.0
2.67
-5.67
-7.0
-2.33
8.0
4.33
0.0
-3.0
1.0
5.33
2.67
8.0
2.67
9.67
-1.0
0.33
6.67
-1.67
5.33
5.67
1.33
-0.67
5.33
-3.33
5.0
3.67
-2.0
1.33
1.0
-1.0
7.33
-3.67
-2.67