File: EDX Back Ups and Old Files/Spectra copy 3.3.23/Samples/High pH BL 25C 14d/8.5.txt
0.0
9.33
3.33
-8.0
-9.0
-3.33
3.0
0.0
0.0
-0.33
0.0
-0.33
-0.33
0.33
1.0
2.0
-0.67
1.33
2.0
2.33
-0.33
5.0
-2.33
-1.33
2.0
4.33
-0.33
1.33
-0.33
4.67
0.67
1.33
7.0
0.0
5.67
3.33
8.67
3.33
0.33
-4.33
0.33
3.33
7.0
-0.67
-1.67
-1.33
4.67
4.33
4.67
3.67
-3.0
-2.67
6.67
0.0
0.67
3.33
1.0
4.0
2.33
3.33
4.33
2.0
-1.67
2.67
-0.67
0.33
0.0
-0.67
-1.67
7.0
5.0
2.67
0.33
0.67
8.0
-2.67
7.67
0.33
-1.33
-5.0
0.67
1.67
0.0
2.0
1.33
2.67
0.67
-2.33
0.0
1.33
-1.33
3.0
-2.0
-1.33
-1.33
2.67
-6.67
-2.67
1.33
-3.33
2.67
-0.33
-9.33
-2.0
-2.33
-5.33
-0.33
2.0
-3.67
5.0
-5.0
5.67
8.67
8.67
6.33
17.0
37.67
21.67
7.0
1.0
1.33
2.33
-0.67
-1.67
-4.33
-7.0
6.67
-1.0
1.33
1.33
1.67
0.33
8.0
3.0
2.33
8.0
2.67
-0.33
2.0
6.67
4.67
6.0
-1.33
0.67
5.0
-2.67
12.0
18.33
16.33
7.0
11.33
-1.0
11.0
3.0
11.67
11.67
5.0
7.0
13.0
3.33
6.67
8.67
3.67
12.0
5.0
11.0
11.33
4.0
7.33
-12.33
13.67
9.33
10.0
4.0
13.0
12.67
13.33
7.33
4.67
5.67
5.0
2.0
15.33
24.0
10.33
28.67
41.67
87.0
105.67
89.67
51.33
12.33
16.0
4.67
13.33
15.0
9.67
-2.33
10.0
9.67
5.0
7.33
4.67
11.0
8.33
15.0
4.67
14.33
9.67
5.0
14.0
6.0
12.33
17.0
7.0
20.33
38.0
31.67
40.67
17.33
13.33
19.67
4.0
6.67
18.67
11.0
15.0
5.67
10.0
-3.0
1.67
3.0
10.0
2.67
15.33
1.67
0.67
7.33
6.33
-1.0
13.33
-4.0
10.67
9.33
-2.0
5.67
11.67
11.67
10.0
7.67
3.0
1.0
1.67
0.0
-5.33
6.0
-3.67
-0.67
0.0
5.33
3.0
-0.33
8.33
-5.0
4.67
-1.0
4.33
-7.0
3.0
4.0
9.33
1.67
-4.0
3.67
5.67
0.0
0.33
-1.33
-2.67
4.33
1.67
12.33
5.33
-3.67
-3.33
1.0
3.67
1.0
0.33
3.0
1.0
-0.67
0.33
0.33