File: EDX Back Ups and Old Files/Spectra copy 3.3.23/Samples/High pH SF 60C 2d/11.25.txt
0.0
-72.67
-73.0
8.67
6.33
-3.67
0.67
0.0
0.67
-0.33
0.0
0.0
1.67
1.67
-0.67
-1.67
2.0
-0.33
2.0
2.33
-3.33
2.33
1.33
5.33
-1.33
2.0
6.0
9.0
4.33
2.0
3.67
1.67
-4.33
4.67
0.0
-3.33
8.67
0.0
-3.0
1.0
-0.67
8.67
1.33
5.67
3.0
0.67
-0.33
1.67
5.67
2.0
-1.67
0.0
-1.0
0.0
3.0
4.33
-2.67
-1.33
5.0
3.0
-0.67
-5.33
6.67
2.33
2.0
0.0
2.33
3.67
0.0
9.67
-1.33
-0.33
2.33
1.33
-0.33
1.33
0.0
5.67
-2.67
-0.33
0.0
-2.67
4.0
3.0
7.0
-2.0
-1.0
1.33
1.67
1.33
-4.0
-2.67
-1.33
-4.67
1.0
-0.67
-2.33
3.0
-3.0
5.67
-1.67
-0.67
-2.33
-1.67
-3.33
0.0
-3.33
-5.33
-3.0
-3.67
-5.33
0.0
0.67
1.0
-1.33
3.67
6.33
-9.0
0.0
-1.67
-7.33
-3.0
-2.33
1.0
-3.0
-2.67
-1.67
-3.33
0.33
0.67
1.33
-5.0
-6.67
2.33
-2.67
3.0
-8.67
-6.67
-1.33
-0.67
4.67
-2.67
2.0
-0.67
-4.67
8.67
14.0
25.67
32.33
25.67
1.0
3.67
0.33
8.33
0.0
16.33
1.0
7.67
9.0
8.33
14.0
8.0
9.33
9.67
12.0
-3.0
0.33
6.67
4.33
2.67
9.0
13.33
7.67
12.33
3.33
4.33
9.0
7.33
2.33
11.33
10.33
21.67
6.33
10.0
9.67
31.0
115.33
192.33
236.67
215.33
103.33
29.67
12.67
19.33
11.33
6.67
8.33
3.33
22.0
18.0
24.67
6.67
-2.33
1.67
-2.33
0.67
10.33
7.0
21.33
13.0
3.33
4.67
2.67
4.0
4.67
9.33
0.67
12.67
15.0
3.33
4.67
-4.67
8.33
-2.67
-2.33
4.67
2.67
3.0
10.67
18.0
10.33
-0.67
8.67
-2.33
1.67
6.0
7.67
18.67
-4.67
7.33
3.0
4.0
3.0
10.67
9.67
5.33
13.0
3.67
9.67
5.0
15.0
10.0
4.67
-0.67
6.0
4.33
8.67
-7.33
-1.0
-1.33
6.0
9.67
-5.33
3.0
1.0
0.33
-3.0
-0.33
0.67
6.0
-7.67
9.67
2.67
7.67
4.67
2.0
5.67
0.33
-5.0
-2.33
3.67
-2.33
2.33
3.67
8.67
-0.67
-0.67
-4.67
-0.33
4.67
0.67
7.67
6.33
0.67