File: EDX Back Ups and Old Files/Spectra copy 3.3.23/Samples/High pH SF 60C 2d/11.5.txt
0.0
31.33
-18.0
5.67
-9.67
0.33
-0.33
1.0
-0.33
0.67
2.0
0.0
-0.33
-0.33
-0.67
-2.67
2.0
-2.33
2.0
-2.67
-1.33
1.33
-1.67
1.33
6.67
-1.0
9.0
3.0
-1.67
4.0
-6.33
9.67
4.67
5.67
4.0
6.67
10.67
13.0
1.0
-2.0
3.33
5.67
-0.67
3.67
-2.0
1.67
-0.33
6.67
9.67
1.0
6.33
5.0
1.0
9.0
-1.0
-3.67
0.33
-3.33
1.0
4.0
-0.67
-1.33
4.67
-1.67
-2.0
7.0
3.33
-0.33
2.0
4.67
-0.33
-4.33
1.33
0.33
-0.33
0.33
2.0
1.67
3.33
-0.33
2.0
-1.67
-1.0
2.0
0.0
0.0
6.0
-0.67
0.67
3.33
-5.0
-0.67
-2.33
-1.67
0.0
0.33
-6.33
-5.0
-7.0
0.67
-1.67
3.33
0.67
5.33
-3.33
-1.0
1.67
-3.33
0.0
1.33
-5.33
-5.0
-3.33
3.0
-0.33
-4.33
-0.67
-8.0
1.0
-1.67
-8.33
0.0
2.67
-3.0
-3.0
-3.67
4.33
-8.33
5.33
-1.33
1.33
-8.0
0.33
9.33
-7.67
-5.0
-11.67
3.33
-2.33
-4.67
-0.33
-1.67
1.0
1.33
-5.67
-3.33
9.0
17.67
39.33
27.67
15.0
-6.33
-2.67
9.33
1.0
5.33
5.0
5.67
3.0
1.33
10.0
5.0
10.33
5.67
8.0
10.0
-0.67
6.67
11.33
9.67
0.0
9.33
8.67
15.33
1.33
9.33
4.0
13.33
-1.67
13.33
16.33
-7.33
0.33
6.0
13.67
15.0
121.33
219.33
269.67
190.33
99.33
31.67
12.67
17.33
15.33
5.67
6.33
3.33
11.0
11.0
10.67
28.67
-11.33
2.67
-1.33
8.67
0.33
10.0
19.33
-5.0
5.33
15.67
28.67
1.0
12.67
-0.67
-0.33
3.67
-8.0
2.33
4.67
7.33
-0.67
-5.67
-5.33
5.67
-6.33
8.0
23.67
15.0
21.33
13.33
0.67
8.67
1.67
1.0
1.67
14.67
-2.67
8.33
0.0
-8.0
2.0
-1.33
6.67
10.33
5.0
-2.33
6.67
6.0
10.0
9.0
-4.33
-1.67
-4.0
4.33
5.67
1.67
5.0
-9.33
-8.0
0.67
-1.33
-4.0
2.0
-12.67
10.0
-0.33
2.67
-1.0
0.33
-1.33
2.67
1.67
6.67
-4.0
6.67
-2.67
-3.0
11.67
0.67
0.67
1.33
-3.33
-3.33
-4.67
0.33
-6.67
0.67
-3.33
-1.33
5.67
2.33
4.67