File: EDX Back Ups and Old Files/Spectra copy 3.3.23/Samples/High pH SF 60C 2d/12.0.txt
0.0
-25.67
17.0
33.67
-6.67
1.33
-0.33
0.0
-0.33
-0.33
0.0
1.0
-0.33
0.67
0.33
-2.67
2.0
4.67
1.0
0.33
2.67
-1.67
-1.67
4.33
9.67
-3.0
2.0
3.0
-1.67
0.0
3.67
1.67
-5.33
4.67
0.0
3.67
6.67
0.0
4.0
1.0
4.33
1.67
-4.67
4.67
2.0
1.67
-0.33
-4.33
-4.33
3.0
3.33
3.0
4.0
-1.0
-2.0
0.33
2.33
-3.33
0.0
3.0
-0.67
-4.33
-1.33
-1.67
-2.0
5.0
2.33
3.67
1.0
2.67
1.67
-0.33
0.33
1.33
1.67
3.33
-1.0
-1.33
4.33
1.67
2.0
-3.67
0.0
-2.0
-4.0
1.0
-1.0
3.33
0.67
1.33
1.0
-0.67
0.67
-2.67
2.0
-0.67
-1.33
3.0
-1.0
-1.33
2.33
-0.67
1.67
-0.67
-7.33
-4.0
-3.33
-0.33
1.0
-1.67
-6.33
-10.0
1.67
-3.0
-7.33
-1.33
10.33
0.0
0.0
-4.67
-3.33
-3.0
1.67
-5.0
-5.0
0.33
-3.67
-10.33
4.33
-4.33
2.33
-11.0
2.33
1.33
-2.67
-4.0
-8.67
-2.67
-6.33
-2.67
-3.33
1.33
-1.0
1.33
-6.67
7.67
11.0
10.67
25.33
17.67
15.0
8.67
-8.67
9.33
0.0
8.33
0.0
12.67
7.0
6.33
3.0
5.0
4.33
6.67
4.0
-6.0
-0.67
7.67
9.33
12.67
-1.0
3.33
6.67
20.33
3.33
2.33
1.0
0.33
3.33
8.33
7.33
2.67
3.33
12.0
28.67
40.0
123.33
253.33
284.67
237.33
111.33
27.67
20.67
6.33
-0.67
21.67
-3.67
8.33
6.0
4.0
15.67
-2.33
-6.33
6.67
1.67
10.67
7.33
15.0
15.33
3.0
-2.67
4.67
6.67
4.0
-1.33
-6.67
-4.33
-4.33
0.0
-2.67
5.67
11.33
4.33
-0.67
-15.33
5.67
7.67
9.0
13.67
13.0
14.33
4.33
8.67
4.67
0.67
11.0
-5.33
4.67
10.33
4.33
-7.0
-3.0
-2.0
2.67
-0.33
3.33
4.0
-2.33
6.67
13.0
13.0
5.0
5.67
3.33
-2.0
1.33
9.67
1.67
-2.0
-6.33
-8.0
5.67
-6.33
5.0
-3.0
-4.67
-3.0
2.67
2.67
4.0
-0.67
9.67
2.67
1.67
4.67
6.0
4.67
3.33
-6.0
-1.33
-1.33
-1.33
0.33
-0.33
2.67
0.33
-3.67
-2.67
-5.33
-5.33
-0.33
0.67
9.33
-0.33