File: EDX Back Ups and Old Files/Spectra copy 3.3.23/Samples/High pH SF 60C 2d/12.25.txt
0.0
-17.67
-36.0
-18.33
2.33
1.33
-0.33
0.0
-0.33
-0.33
1.0
1.0
-0.33
0.67
-0.67
-2.67
0.0
-0.33
1.0
-1.67
-4.33
0.33
-3.67
5.33
1.67
-6.0
6.0
1.0
1.33
2.0
-9.33
0.67
-2.33
7.67
1.0
0.67
7.67
2.0
1.0
-4.0
4.33
0.67
-4.67
2.67
-5.0
-2.33
-3.33
2.67
0.67
3.0
-0.67
-1.0
4.0
1.0
6.0
-3.67
-0.67
-4.33
-1.0
4.0
8.33
-4.33
5.67
-1.67
-3.0
5.0
3.33
3.67
-5.0
3.67
-2.33
-0.33
-1.67
-3.67
-1.33
2.33
-2.0
-1.33
0.33
-2.33
4.0
0.33
2.0
-2.0
0.0
2.0
4.0
-4.67
7.67
0.33
1.0
2.33
3.67
-0.67
-4.0
-5.67
-1.33
-3.0
-5.0
-1.33
-1.67
1.33
-2.33
-2.67
-5.33
-2.0
-2.33
-6.33
-3.0
-0.67
-2.33
-6.0
-1.33
-1.0
-7.33
-5.33
15.33
-3.0
6.0
-4.67
-4.33
-2.0
-3.33
2.0
-7.0
-2.67
-1.67
-4.33
-2.67
-1.33
-1.67
-4.0
-4.67
0.33
-6.67
-5.0
-3.67
1.33
-4.33
-2.67
2.67
-5.67
-7.0
2.33
-2.67
-4.33
10.0
6.67
18.33
5.67
5.0
-1.33
1.33
5.33
0.0
-1.67
-3.0
-0.33
-7.0
-1.67
3.0
2.0
-0.67
0.67
-3.0
-3.0
1.33
-1.33
-0.67
11.67
7.0
1.33
2.67
6.33
-3.67
-1.67
-2.0
11.33
-4.67
2.33
4.33
-3.33
2.33
5.0
1.67
31.0
57.33
98.33
149.67
98.33
55.33
6.67
2.67
-3.67
-5.67
2.67
4.33
3.33
7.0
8.0
13.67
9.67
0.67
3.67
-6.33
5.67
-4.67
4.0
8.33
4.0
-8.67
4.67
7.67
-1.0
-3.33
-6.67
-7.33
1.67
-5.0
-1.67
-7.33
8.33
0.33
-13.67
-5.33
-2.33
1.67
2.0
10.67
4.0
-4.67
1.33
-4.33
-9.33
5.67
-6.0
-10.33
13.67
-0.67
7.33
-9.0
5.0
7.0
11.67
2.67
-6.67
10.0
-1.33
7.67
-6.0
11.0
9.0
0.67
-1.67
-7.0
0.33
-2.33
-1.33
0.0
-6.33
-4.0
-1.33
-1.33
-2.0
-7.0
-5.67
1.0
-5.33
2.67
7.0
-4.67
-5.33
5.67
7.67
4.67
1.0
-3.33
-4.67
-4.0
1.67
-0.33
-0.33
-1.67
-0.33
0.67
1.33
-2.67
-6.67
-2.33
1.67
-2.33
2.67
2.33
4.67