File: EDX Back Ups and Old Files/Spectra copy 3.3.23/Samples/High pH SF 60C 2d/6.0.txt
0.0
25.33
11.0
-20.33
0.33
-0.67
-0.33
0.0
0.67
-0.33
2.0
0.0
-0.33
-0.33
1.33
0.33
1.0
4.67
4.0
-0.67
2.67
5.33
1.33
3.33
6.67
3.0
11.0
5.0
1.33
3.0
-0.33
2.67
4.67
3.67
1.0
1.67
10.67
-1.0
3.0
3.0
9.33
3.67
-0.67
5.67
-4.0
7.67
4.67
4.67
9.67
-3.0
1.33
0.0
0.0
6.0
3.0
2.33
2.33
-2.33
-1.0
4.0
-2.67
2.67
8.67
1.33
0.0
6.0
2.33
6.67
-1.0
2.67
7.67
3.67
-0.67
0.33
4.67
4.33
-2.0
5.67
-3.67
0.67
2.0
1.33
3.0
-3.0
2.0
-3.0
0.0
-0.67
3.67
0.33
0.0
3.33
0.67
-0.67
1.0
1.33
-6.33
3.0
-5.0
-1.33
2.33
-2.67
-3.33
1.33
-5.33
-2.0
-0.33
-4.33
2.0
-7.67
-4.33
-9.0
0.67
-2.0
-4.33
10.67
21.33
13.0
13.0
-1.67
-5.33
3.0
2.67
-6.0
-6.0
2.33
-4.67
-11.33
-0.67
-2.33
-0.67
-6.0
-1.67
-4.67
-5.67
-5.0
-4.67
-6.67
3.67
-9.67
0.67
-0.67
4.0
6.33
-3.67
2.67
-6.0
9.67
2.33
21.67
0.0
5.67
7.33
7.33
2.0
9.33
-6.0
10.67
8.0
7.33
5.0
8.0
12.33
7.67
4.0
12.0
-3.67
6.67
13.33
8.67
3.0
11.33
3.67
10.33
-2.67
-2.67
5.0
8.33
11.33
11.33
9.33
5.67
8.33
10.0
19.67
9.0
35.33
55.33
89.67
92.33
30.33
21.67
4.67
9.33
-2.67
5.67
7.33
12.33
17.0
23.0
2.67
11.67
-0.33
17.67
-6.33
1.67
-1.67
-2.0
22.33
8.0
-8.67
13.67
17.67
10.0
16.67
27.33
18.67
33.67
22.0
28.33
3.67
19.33
-6.67
3.33
-8.33
3.67
6.67
3.0
21.67
12.0
3.33
-0.67
1.67
3.67
-2.33
10.0
9.67
6.67
3.33
5.33
2.0
5.0
3.0
8.67
10.67
13.33
11.0
5.67
5.67
2.0
3.0
0.0
6.67
11.33
-5.0
1.33
3.67
5.67
1.0
-1.33
3.0
6.67
-5.33
1.0
10.0
-5.67
7.0
-3.33
12.67
1.0
5.33
6.67
1.67
8.67
-1.33
4.0
3.67
0.33
5.0
0.67
1.67
-3.33
6.33
2.67
1.67
0.33
1.33
-1.67
-0.33
-1.33
2.67
2.67
2.33
-4.33