File: EDX Back Ups and Old Files/Spectra copy 3.3.23/Samples/High pH SF 60C 2d/6.25.txt
0.0
-77.67
-16.0
-11.33
22.33
2.33
2.67
1.0
0.67
-0.33
0.0
1.0
0.67
0.67
0.33
1.33
6.0
1.67
-3.0
2.33
1.67
-1.67
5.33
5.33
-1.33
8.0
10.0
1.0
2.33
2.0
-3.33
9.67
0.67
-1.33
-4.0
6.67
7.67
-1.0
7.0
1.0
6.33
3.67
-9.67
1.67
-4.0
5.67
-1.33
9.67
3.67
3.0
1.33
6.0
10.0
3.0
3.0
0.33
4.33
1.67
2.0
9.0
5.33
4.67
2.67
4.33
-3.0
2.0
4.33
-0.33
0.0
-0.33
-2.33
-1.33
-0.67
3.33
-0.33
3.33
-2.0
3.67
5.33
-0.33
0.0
0.33
2.0
-2.0
6.0
-3.0
0.0
0.33
4.67
1.33
1.0
0.33
3.67
-3.67
3.0
-2.67
-6.33
0.0
-5.0
1.67
-2.67
-2.67
6.67
-0.67
-8.33
-1.0
-5.33
-4.33
-5.0
-4.67
-5.33
-6.0
-2.33
-7.0
5.67
13.67
31.33
10.0
4.0
8.33
-4.33
3.0
1.67
0.0
3.0
9.33
-6.67
-3.33
3.33
-1.33
-2.67
-1.0
1.33
-4.67
-2.67
2.0
-11.67
-2.67
-0.33
-3.67
-4.33
-5.67
-1.0
0.33
-3.67
-4.33
10.0
12.67
11.33
9.67
5.0
-1.33
-8.67
7.33
0.0
5.33
2.0
3.67
4.0
6.33
6.0
7.0
4.33
11.67
7.0
3.0
0.33
3.67
8.33
7.67
9.0
3.33
9.67
2.33
2.33
0.33
0.0
6.33
1.33
10.33
8.33
1.67
8.33
11.0
16.67
24.0
47.33
90.33
108.67
70.33
50.33
16.67
13.67
16.33
5.33
12.67
4.33
5.33
8.0
9.0
19.67
2.67
-0.33
13.67
-1.33
7.67
14.33
-2.0
12.33
1.0
-3.67
-5.33
2.67
11.0
0.67
16.33
15.67
33.67
28.0
9.33
24.67
12.33
2.33
-2.67
-4.33
1.67
5.67
4.0
16.67
2.0
14.33
-4.67
8.67
2.67
-6.33
4.0
8.67
9.67
-3.67
13.33
-6.0
2.0
6.0
2.67
-4.33
-0.67
16.0
1.67
9.67
8.0
6.0
9.0
4.67
1.33
-6.0
1.33
-3.33
3.67
-2.0
5.67
4.0
2.67
-1.33
7.0
11.0
-3.67
3.0
5.67
0.67
-2.0
-0.67
6.67
-1.33
3.67
1.67
1.0
-1.33
2.33
-4.0
2.67
6.67
3.67
-2.67
5.67
0.67
-3.67
1.33
0.33
-1.33
6.67
1.67
-3.33
7.33
2.67