File: EDX Back Ups and Old Files/Spectra copy 3.3.23/Samples/High pH SF 60C 2d/6.5.txt
0.0
-44.67
-54.0
2.67
0.33
-2.67
-0.33
0.0
0.67
-0.33
0.0
0.0
0.67
0.67
0.33
-1.67
3.0
2.67
2.0
-0.67
8.67
4.33
3.33
7.33
4.67
2.0
4.0
-3.0
6.33
5.0
-0.33
1.67
0.67
4.67
3.0
2.67
5.67
1.0
9.0
2.0
8.33
-1.33
-11.67
3.67
-5.0
4.67
3.67
4.67
3.67
1.0
3.33
5.0
3.0
1.0
2.0
1.33
-0.67
-2.33
0.0
3.0
-2.67
4.67
1.67
1.33
1.0
-1.0
0.33
3.67
1.0
7.67
0.67
-0.33
-2.67
-0.67
2.67
1.33
-1.0
3.67
0.33
-2.33
1.0
0.33
5.0
1.0
2.0
1.0
1.0
1.33
4.67
2.33
1.0
2.33
2.67
-3.67
0.0
0.33
-4.33
-2.0
-2.0
-2.33
-2.67
-1.67
-1.33
-0.67
-5.33
-5.0
-2.33
-5.33
-3.0
-5.67
-4.33
-4.0
1.67
-4.0
-0.33
11.67
15.33
15.0
10.0
2.33
2.67
2.0
-5.33
-1.0
-3.0
-1.67
-5.67
-1.33
6.33
-2.33
-4.67
-9.0
-5.67
-0.67
-8.67
0.0
-2.67
-2.67
-3.33
-3.67
-1.33
4.33
-1.0
1.33
-1.67
-7.33
10.0
11.67
9.33
8.67
4.0
15.67
-2.67
2.33
-1.0
14.33
4.0
13.67
1.0
6.33
4.0
4.0
4.33
7.67
4.0
6.0
-1.67
8.67
16.33
11.67
3.0
4.33
14.67
8.33
6.33
-1.67
11.0
4.33
4.33
9.33
1.33
-1.33
8.33
5.0
16.67
21.0
53.33
72.33
94.67
71.33
28.33
4.67
17.67
3.33
7.33
9.67
5.33
-3.67
16.0
14.0
18.67
12.67
6.67
7.67
2.67
7.67
3.33
-3.0
15.33
16.0
-6.67
-4.33
2.67
8.0
-4.33
15.33
19.67
18.67
9.0
28.33
16.67
10.33
-4.67
-5.67
-7.33
6.67
1.67
1.0
9.67
10.0
12.33
-9.67
0.67
1.67
3.67
3.0
-0.33
16.67
-4.67
4.33
3.0
-1.0
10.0
-3.33
4.67
2.33
13.0
-8.33
1.67
2.0
-3.0
11.0
4.67
0.33
-2.0
4.33
-3.33
7.67
-5.0
1.67
7.0
-1.33
1.67
-1.0
9.0
-12.67
1.0
3.67
2.67
6.0
-6.67
6.67
4.67
7.67
5.67
10.0
-0.33
6.33
-5.0
2.67
3.67
-0.33
4.33
14.67
5.67
1.33
1.33
2.33
-4.33
5.67
2.67
1.67
2.33
0.67