File: EDX Back Ups and Old Files/Spectra copy 3.3.23/Samples/High pH SF 60C 2d/8.5.txt
0.0
19.33
-1.0
29.67
0.33
1.33
-0.33
0.0
-0.33
-0.33
0.0
0.0
-0.33
-0.33
1.33
0.33
1.0
-0.33
0.0
0.33
-4.33
2.33
-1.67
2.33
-3.33
-4.0
3.0
-3.0
7.33
3.0
3.67
7.67
0.67
2.67
3.0
3.67
3.67
5.0
2.0
-4.0
3.33
5.67
0.33
6.67
6.0
3.67
-2.33
-5.33
8.67
1.0
-0.67
1.0
5.0
4.0
-2.0
5.33
3.33
-2.33
-3.0
4.0
-2.67
0.67
1.67
2.33
-5.0
4.0
1.33
2.67
-6.0
3.67
-0.33
-3.33
-0.67
-2.67
5.67
2.33
0.0
0.67
0.33
0.67
5.0
1.33
9.0
0.0
-1.0
-1.0
3.0
-0.67
3.67
1.33
2.0
-1.67
1.67
-3.67
-2.0
0.33
-6.33
-3.0
-1.0
1.67
-1.67
-0.67
-2.33
-1.67
-4.33
0.0
-0.33
-3.33
-2.0
-8.67
-4.33
-6.0
-3.33
1.0
-3.33
12.67
21.33
13.0
9.0
-1.67
-0.33
0.0
0.67
5.0
-6.0
2.33
3.33
-5.33
6.33
-2.33
1.33
-5.0
-1.67
1.33
-3.67
-7.0
-7.67
1.33
0.67
0.33
-4.33
-5.67
1.0
0.33
-1.67
1.67
-5.0
16.67
17.33
2.67
1.0
0.67
-0.67
0.33
7.0
11.33
3.0
8.67
0.0
13.33
4.0
2.0
4.33
-5.33
5.0
0.0
2.33
6.67
7.33
23.67
5.0
1.33
6.67
11.33
11.33
0.33
1.0
15.33
7.33
14.33
16.33
12.67
8.33
5.0
20.67
21.0
41.33
86.33
81.67
96.33
35.33
6.67
9.67
16.33
10.33
-4.33
17.33
14.33
14.0
6.0
17.67
19.67
1.67
6.67
5.67
-0.33
10.33
17.0
5.33
10.0
-7.67
15.67
3.67
10.0
9.67
4.33
21.67
40.67
23.0
17.33
11.67
19.33
-3.67
1.33
-6.33
11.67
2.67
7.0
4.67
22.0
1.33
4.33
4.67
5.67
6.67
4.0
1.67
-0.33
12.33
9.33
-1.0
-3.0
11.0
-3.33
10.67
-9.67
20.0
7.67
1.67
11.0
9.0
10.0
3.67
10.33
-5.0
-8.67
-3.33
2.67
1.0
7.67
-2.0
7.67
8.67
3.0
3.0
-5.67
-1.0
-0.33
1.67
-6.0
-1.67
-2.33
-4.33
-0.33
3.67
4.0
-2.33
-4.67
2.0
5.67
3.67
1.67
2.33
7.67
5.67
-2.67
-0.67
-2.67
-0.33
1.67
-2.33
-2.33
8.33
2.67