File: EDX Back Ups and Old Files/Spectra copy 3.3.23/Samples/High pH SF 60C 2d/8.75.txt
0.0
-75.67
-12.0
32.67
11.33
-1.67
-0.33
0.0
-0.33
0.67
0.0
0.0
0.67
-0.33
2.33
-1.67
0.0
4.67
-3.0
-3.67
-2.33
0.33
-3.67
3.33
-1.33
-1.0
3.0
3.0
4.33
2.0
-0.33
2.67
-4.33
5.67
4.0
5.67
5.67
3.0
9.0
-1.0
2.33
6.67
-2.67
3.67
-2.0
0.67
-3.33
3.67
-0.33
3.0
0.33
0.0
0.0
5.0
3.0
1.33
4.33
-3.33
1.0
10.0
-0.67
0.67
4.67
-3.67
2.0
3.0
1.33
6.67
-1.0
6.67
-0.33
-5.33
3.33
-2.67
5.67
-0.67
5.0
-0.33
-0.67
-1.33
5.0
0.33
1.0
-2.0
4.0
0.0
5.0
-1.67
2.67
0.33
0.0
0.33
3.67
-2.67
1.0
-2.67
-5.33
0.0
-6.0
-5.33
3.33
3.33
0.67
-2.67
-3.33
-7.0
-4.33
1.67
-3.0
-4.67
-0.33
-5.0
-2.33
-7.0
8.67
17.67
26.33
10.0
12.0
-2.67
-5.33
-1.0
2.67
3.0
-2.0
-0.67
-5.67
-0.33
-0.67
-5.33
-3.67
-11.0
-1.67
-3.67
-3.67
3.0
-5.67
5.33
-3.33
-1.67
-1.33
6.33
0.0
3.33
2.33
-9.33
8.0
20.67
7.33
15.67
4.0
10.67
-5.67
-1.67
-2.0
6.33
10.0
2.67
3.0
6.33
13.0
16.0
-0.67
5.67
1.0
0.0
-0.67
8.67
9.33
19.67
2.0
3.33
10.67
9.33
3.33
5.33
14.0
5.33
5.33
8.33
2.33
5.67
2.33
19.0
17.67
20.0
50.33
63.33
112.67
96.33
51.33
12.67
19.67
6.33
9.33
13.67
1.33
-1.67
11.0
2.0
16.67
5.67
2.67
9.67
-6.33
1.67
3.33
4.0
15.33
-3.0
1.33
4.67
19.67
13.0
-6.33
1.33
4.67
30.67
32.0
17.33
13.67
17.33
15.33
1.33
-3.33
1.67
-10.33
2.0
14.67
3.0
17.33
1.33
0.67
2.67
10.67
-4.0
4.67
18.67
7.33
4.33
-6.0
7.0
-4.0
0.67
-7.33
-5.67
5.0
2.67
5.67
3.0
10.0
0.0
3.67
6.33
-2.0
-3.67
1.67
3.67
4.0
5.67
-1.0
8.67
8.67
-3.0
7.0
-0.67
6.0
3.67
2.67
0.0
-1.67
10.67
0.67
1.67
2.67
6.0
-3.33
-2.67
-1.0
-3.33
6.67
1.67
6.33
3.67
1.67
-3.67
-2.67
-2.67
-1.33
-5.33
3.67
4.67
7.33
6.67