File: EDX Back Ups and Old Files/Spectra copy 3.3.23/Samples/High pH BL Ref/10.75.txt
0.0
27.67
114.67
-19.67
-1.67
-5.33
-0.67
0.0
-0.67
0.0
0.0
0.0
-1.0
3.0
1.0
-2.67
-2.33
2.0
-0.33
0.67
0.67
2.33
-0.67
8.0
-1.0
0.0
0.33
1.67
6.0
5.67
7.33
-0.33
0.0
-0.33
0.0
-2.33
10.0
4.0
-3.0
-0.67
-0.67
4.0
0.33
4.67
1.33
3.0
3.0
-1.0
-1.33
6.67
0.67
-1.0
-2.67
-4.0
9.0
-1.33
4.33
6.67
3.0
0.0
2.33
-4.33
4.0
1.33
-0.33
5.33
-1.33
-2.0
4.33
5.67
-4.67
-0.67
3.0
-1.0
1.33
8.0
1.67
4.33
2.0
-3.0
3.67
-3.33
1.0
5.33
3.0
-2.0
-3.67
-2.0
-1.0
0.0
0.33
-4.0
-0.33
1.67
-2.67
-5.0
-2.33
-0.33
1.0
-0.33
-5.67
-4.0
4.67
-4.33
2.33
-2.33
-4.33
0.33
2.0
-6.33
-4.0
1.67
2.0
-1.33
5.33
29.33
36.33
21.0
4.33
7.67
-1.67
-0.33
-2.0
-4.33
3.0
0.67
-2.0
-2.67
4.0
-1.0
-3.33
-4.67
-1.0
-2.67
1.0
-2.33
0.67
0.67
-2.67
1.33
-4.33
10.33
2.33
2.0
4.0
8.0
3.0
15.0
18.33
14.0
9.67
-0.33
13.0
6.67
3.67
6.33
4.0
1.33
-2.0
11.0
6.67
2.0
4.0
-2.33
2.67
8.33
5.67
12.0
1.33
-1.0
-5.33
6.33
7.67
1.67
-0.67
19.33
11.67
10.0
10.0
7.33
9.0
12.0
26.33
17.33
27.33
24.33
49.67
92.33
101.67
93.67
54.67
28.67
6.67
7.67
8.67
9.33
18.67
13.0
10.67
-4.33
9.67
3.0
9.33
-1.0
1.67
11.67
-0.67
1.33
15.0
13.0
10.67
-3.67
1.67
1.67
3.0
19.67
37.33
34.0
28.33
13.33
21.67
5.33
3.67
7.67
5.67
5.0
8.0
5.0
9.0
15.0
13.0
15.33
-11.0
4.0
0.67
3.33
18.33
0.33
2.67
3.33
-3.33
-1.0
-0.67
-4.67
-3.33
7.0
-2.67
2.67
2.33
15.33
1.0
-2.67
1.0
0.67
1.0
5.67
-2.0
4.67
5.67
3.67
5.33
7.67
-6.33
7.0
-5.0
-0.33
-0.67
8.33
0.33
3.67
0.0
7.67
0.0
3.0
2.67
-3.67
2.33
5.33
4.67
-3.0
5.0
-1.67
6.0
1.33
-3.0
9.0
-5.67
3.0
0.33
-2.67
1.0
-3.67
2.0
0.0