File: EDX Back Ups and Old Files/Spectra copy 3.3.23/Samples/High pH BL Ref/11.25.txt
0.0
128.67
28.67
-9.67
1.33
-1.33
1.33
1.0
-0.67
0.0
0.0
0.0
-1.0
0.0
0.0
-2.67
-4.33
0.0
-1.33
-3.33
-0.33
0.33
8.33
6.0
1.0
0.0
1.33
-0.33
2.0
-3.33
-0.67
2.67
-3.0
4.67
10.0
1.67
-1.0
6.0
-2.0
3.33
-3.67
4.0
5.33
3.67
2.33
8.0
-3.0
6.0
-3.33
3.67
-0.33
4.0
2.33
3.0
3.0
-1.33
1.33
0.67
-6.0
1.0
1.33
4.67
1.0
4.33
-3.33
5.33
1.67
0.0
5.33
-0.33
-3.67
2.33
-3.0
6.0
-0.67
0.0
2.67
-3.67
2.0
-3.0
0.67
-3.33
5.0
1.33
1.0
-1.0
0.33
1.0
3.0
0.0
2.33
2.0
0.67
1.67
-0.67
-1.0
-5.33
-1.33
1.0
2.67
-6.67
-4.0
5.67
0.67
3.33
-1.33
-3.33
-3.67
-6.0
-3.33
-6.0
1.67
0.0
-0.33
18.33
23.33
44.33
46.0
9.33
2.67
-2.67
2.67
-3.0
-11.33
-5.0
2.67
9.0
-6.67
-3.0
0.0
-7.33
-6.67
-2.0
-2.67
-5.0
-1.33
-1.33
-3.33
3.33
-7.67
1.67
4.33
-0.67
0.0
-3.0
3.0
4.0
16.0
30.33
10.0
6.67
0.67
0.0
8.67
15.67
15.33
1.0
1.33
6.0
11.0
7.67
6.0
8.0
0.67
-6.33
2.33
3.67
12.0
14.33
2.0
7.67
4.33
3.67
4.67
0.33
17.33
-0.33
3.0
6.0
2.33
1.0
8.0
20.33
22.33
16.33
31.33
54.67
113.33
122.67
99.67
43.67
17.67
13.67
10.67
6.67
19.33
13.67
13.0
8.67
16.67
-0.33
18.0
11.33
16.0
8.67
15.67
12.33
10.33
7.0
13.0
8.67
3.33
-5.33
6.67
10.0
17.67
27.33
45.0
19.33
11.33
21.67
10.33
-1.33
8.67
13.67
-2.0
15.0
3.0
11.0
13.0
9.0
-1.67
-4.0
2.0
-3.33
7.33
10.33
-3.67
-8.33
12.33
2.67
2.0
0.33
-2.67
-1.33
-5.0
5.33
6.67
7.33
7.33
7.0
4.33
4.0
-3.33
5.0
3.67
-6.0
-2.33
11.67
-0.33
6.33
-6.33
-8.33
-6.0
0.0
-6.33
0.33
-1.67
9.33
-0.33
1.0
1.67
7.0
3.0
4.67
-2.67
-5.67
-3.67
0.67
-4.0
2.0
-4.67
8.0
5.33
0.0
4.0
2.33
2.0
0.33
0.33
-2.0
-1.67
1.0
-5.0