File: EDX Back Ups and Old Files/Spectra copy 3.3.23/Samples/High pH BL Ref/12.0.txt
0.0
40.67
34.67
-27.67
-8.67
-2.33
0.33
1.0
-0.67
0.0
0.0
1.0
-1.0
1.0
1.0
-2.67
-2.33
5.0
-2.33
-2.33
0.67
7.33
-0.67
4.0
0.0
9.0
3.33
1.67
-1.0
-0.33
7.33
8.67
7.0
-0.33
7.0
2.67
3.0
4.0
0.0
1.33
-5.67
6.0
3.33
0.67
7.33
10.0
-3.0
5.0
0.67
5.67
-2.33
2.0
-2.67
4.0
-1.0
-1.33
-2.67
0.67
0.0
3.0
-0.67
0.67
-2.0
-1.67
2.67
3.33
0.67
-2.0
-1.67
0.67
-2.67
1.33
-3.0
-1.0
-1.67
3.0
1.67
3.33
0.0
-4.0
-0.33
-0.33
-1.0
1.33
1.0
-1.0
-5.67
-3.0
-4.0
-2.0
3.33
-5.0
0.67
-0.33
3.33
-2.0
-5.33
-2.33
7.0
3.67
-2.67
-2.0
4.67
-0.33
0.33
-3.33
-2.33
0.33
-2.0
-2.33
-4.0
3.67
7.0
15.67
0.33
22.33
44.33
33.0
15.33
3.67
3.33
-6.33
3.0
-0.33
6.0
-4.33
0.0
-2.67
-5.0
3.0
-4.33
-2.67
2.0
-4.67
3.0
-2.33
-6.33
7.67
8.33
-2.67
-5.33
-0.67
9.33
2.0
10.0
8.0
11.0
34.0
23.33
35.0
11.67
3.67
11.0
0.67
5.67
3.33
2.0
5.33
-1.0
0.0
9.67
-1.0
7.0
8.67
5.67
6.33
4.67
5.0
7.33
-1.0
4.67
9.33
16.67
1.67
-2.67
6.33
5.67
2.0
6.0
9.33
4.0
3.0
7.33
24.33
22.33
40.33
79.67
202.33
222.67
175.67
106.67
28.67
12.67
8.67
22.67
4.33
11.67
11.0
3.67
4.67
11.67
8.0
18.33
23.0
13.67
11.67
6.33
9.33
9.0
5.0
14.67
3.33
5.67
7.67
-1.0
27.67
7.33
41.0
12.33
6.33
21.67
4.33
3.67
11.67
1.67
9.0
9.0
1.0
8.0
16.0
13.0
6.33
4.0
-10.0
-2.33
-3.67
14.33
-3.67
9.67
-3.67
6.67
-2.0
8.33
-2.67
-0.33
0.0
2.33
8.67
4.33
6.33
2.0
9.33
0.0
-0.33
3.0
5.67
0.0
4.67
-1.33
7.67
-5.67
-3.33
-11.33
-1.0
-1.0
2.67
-1.67
-2.67
2.33
5.67
0.0
4.67
-3.0
0.0
2.67
-0.67
-4.67
-4.67
11.67
-4.0
2.0
3.33
0.0
12.33
1.0
5.0
1.33
0.0
-2.67
-0.67
-2.0
0.33
5.0
0.0