File: EDX Back Ups and Old Files/Spectra copy 3.3.23/Samples/High pH BL Ref/12.25.txt
0.0
-30.33
-3.33
-17.67
-7.67
4.67
-0.67
0.0
-0.67
0.0
0.0
1.0
1.0
1.0
2.0
-1.67
-1.33
1.0
-1.33
-0.33
-2.33
-0.67
-1.67
4.0
-1.0
0.0
2.33
0.67
-1.0
5.67
5.33
-5.33
2.0
1.67
-2.0
2.67
-1.0
6.0
2.0
6.33
2.33
6.0
2.33
4.67
-1.67
5.0
5.0
3.0
-1.33
2.67
-4.33
-3.0
4.33
7.0
4.0
4.67
-1.67
-0.33
3.0
2.0
3.33
-1.33
3.0
0.33
-2.33
-3.67
-2.33
-2.0
0.33
1.67
0.33
0.33
-3.0
0.0
1.33
2.0
-1.33
-2.67
-4.0
-3.0
3.67
-2.33
0.0
6.33
3.0
0.0
-3.67
1.0
3.0
3.0
4.33
-3.0
-1.33
1.67
-1.67
-1.0
-4.33
-2.33
-1.0
0.67
-5.67
1.0
-0.33
0.67
-1.67
-2.33
-1.33
-0.67
-3.0
8.67
-3.0
-0.33
4.0
0.67
-2.67
38.33
63.33
54.0
10.33
4.67
-3.67
-3.33
2.0
-3.33
2.0
10.67
3.0
-4.67
1.0
0.0
-5.33
-9.67
0.0
-4.67
0.0
0.67
-6.33
-2.33
7.33
3.33
-3.33
8.33
9.33
13.0
11.0
20.0
22.0
20.0
12.33
17.0
7.67
2.67
4.0
10.67
8.67
2.33
9.0
0.33
-3.0
13.0
-0.33
1.0
14.0
-0.33
1.67
3.33
8.67
17.0
8.33
1.0
4.67
7.33
1.67
9.67
-3.67
0.33
4.67
6.0
13.0
11.33
-2.0
7.0
11.33
14.33
22.33
29.33
61.67
146.33
156.67
142.67
70.67
22.67
4.67
13.67
6.67
10.33
11.67
4.0
0.67
4.67
6.67
2.0
10.33
14.0
4.67
14.67
5.33
17.33
-2.0
7.0
6.67
-2.67
-2.33
8.67
1.0
13.67
21.33
19.0
18.33
0.33
16.67
6.33
9.67
17.67
-3.33
4.0
2.0
10.0
8.0
2.0
2.0
9.33
-5.0
0.0
-5.33
13.33
3.33
-4.67
1.67
5.33
7.67
7.0
-1.67
-9.67
-2.33
-4.0
7.33
-0.33
-2.67
12.33
7.0
0.33
-4.0
-4.33
3.0
2.67
-9.0
3.67
7.67
1.67
-3.67
2.67
-2.33
-3.0
-6.0
-4.33
-1.67
5.33
8.33
-1.33
7.0
6.67
-4.0
-3.0
0.67
6.33
0.33
-4.67
2.67
7.0
1.0
-1.67
3.0
2.33
1.0
2.0
-3.67
-3.0
1.33
0.33
2.0
0.33
0.0
-1.0