File: EDX Back Ups and Old Files/Spectra copy 3.3.23/Samples/High pH BL Ref/8.25.txt
0.0
81.67
36.67
-4.67
2.33
-1.33
-0.67
0.0
0.33
0.0
0.0
0.0
0.0
0.0
-1.0
-2.67
-2.33
0.0
-1.33
1.67
5.67
-5.67
3.33
6.0
-4.0
-2.0
3.33
-6.33
7.0
-0.33
5.33
-0.33
3.0
-1.33
6.0
2.67
0.0
4.0
6.0
-0.67
-1.67
4.0
3.33
5.67
0.33
6.0
8.0
4.0
-0.33
7.67
1.67
6.0
0.33
2.0
5.0
0.67
0.33
0.67
-1.0
2.0
-1.67
-2.33
3.0
-0.67
2.67
-0.67
1.67
0.0
4.33
-0.33
-3.67
2.33
-2.0
-2.0
3.33
1.0
-0.33
-5.67
3.0
-2.0
-0.33
4.67
2.0
3.33
5.0
0.0
-7.67
0.0
-1.0
1.0
1.33
-3.0
-5.33
-0.33
1.33
2.0
2.67
1.67
3.0
-3.33
-3.67
-4.0
-0.33
-4.33
0.33
0.67
-0.33
-1.67
-1.0
-2.33
-7.0
2.67
0.0
0.67
8.33
7.33
17.33
26.0
1.33
-8.33
-2.67
-4.33
1.0
-8.33
5.0
-2.33
-1.0
-7.67
-3.0
-4.0
-4.33
-1.67
7.0
-1.67
-3.0
-1.33
-2.33
-2.33
4.33
0.33
0.67
1.33
8.33
-2.0
4.0
3.0
1.0
9.0
14.33
3.0
12.67
8.67
6.0
5.67
-1.33
4.33
5.0
14.33
0.0
2.0
10.67
-3.0
6.0
1.67
7.67
7.33
1.67
7.0
0.33
16.0
15.67
10.33
-0.33
2.67
15.33
1.33
10.67
15.0
8.0
10.33
5.0
7.0
7.33
18.33
8.33
25.33
30.67
71.33
96.67
58.67
40.67
31.67
4.67
13.67
14.67
18.33
12.67
0.0
14.67
-8.33
11.67
17.0
19.33
12.0
16.67
29.67
3.33
5.33
7.0
24.0
-5.33
2.33
-3.33
2.67
7.0
19.67
21.33
21.0
8.33
20.33
21.67
12.33
7.67
12.67
11.67
9.0
9.0
4.0
1.0
14.0
16.0
13.33
-12.0
-2.0
-2.33
-0.67
8.33
0.33
-0.33
1.33
-1.33
8.0
0.33
2.33
9.67
-1.0
6.33
2.67
3.33
8.33
5.0
-3.67
5.0
9.67
6.0
2.67
-2.0
-1.33
4.67
-0.33
-1.67
6.67
0.67
-2.0
-5.0
-0.33
0.33
8.33
9.33
3.67
-5.0
3.67
7.0
3.0
-0.33
9.33
3.33
-3.67
-1.33
-3.0
3.0
1.33
1.0
7.33
4.0
0.0
-3.67
5.0
5.33
0.33
0.0
4.33
7.0
-1.0