File: EDX Back Ups and Old Files/Spectra copy 3.3.23/Samples/High pH BL Ref/9.5.txt
0.0
72.67
49.67
0.33
-1.67
-2.33
-0.67
1.0
0.33
0.0
0.0
0.0
-1.0
0.0
1.0
-0.67
-3.33
-1.0
-0.33
-2.33
-4.33
-3.67
3.33
4.0
0.0
-2.0
3.33
-5.33
7.0
4.67
5.33
-0.33
6.0
0.67
2.0
0.67
-1.0
0.0
4.0
2.33
-0.67
-4.0
-0.67
-0.33
4.33
-1.0
0.0
4.0
-1.33
1.67
-4.33
3.0
3.33
-1.0
4.0
-0.33
5.33
0.67
1.0
0.0
1.33
-1.33
1.0
-3.67
-2.33
0.33
-0.33
1.0
-2.67
2.67
-1.67
3.33
-1.0
1.0
1.33
4.0
-3.33
1.33
0.0
-2.0
-1.33
2.67
0.0
3.33
0.0
-2.0
-5.67
-4.0
0.0
1.0
-1.67
-1.0
-1.33
0.67
-0.67
3.0
3.67
-0.33
-3.0
3.67
-6.67
0.0
3.67
0.67
-0.67
-2.33
-4.33
-0.67
-1.0
-3.33
-4.0
-1.33
1.0
-4.33
7.33
18.33
23.33
28.0
-2.67
6.67
2.33
-3.33
-3.0
-2.33
0.0
0.67
6.0
6.33
5.0
-3.0
-4.33
-9.67
2.0
-2.67
4.0
-9.33
-0.33
8.67
-4.67
-2.67
-1.33
2.33
5.33
3.0
-5.0
0.0
6.0
13.0
21.33
13.0
4.67
6.67
2.0
1.67
1.67
3.33
12.0
5.33
4.0
-4.0
4.67
4.0
12.0
1.67
0.67
4.33
-0.33
10.0
2.33
1.0
-7.33
7.33
3.67
1.67
6.33
9.33
4.67
11.0
5.0
11.33
4.0
13.0
8.33
21.33
26.33
29.33
63.67
84.33
97.67
69.67
36.67
21.67
8.67
16.67
10.67
0.33
-1.33
8.0
9.67
3.67
2.67
14.0
5.33
14.0
15.67
4.67
5.33
9.33
17.0
10.0
6.67
8.33
-4.33
13.67
8.0
10.67
23.33
31.0
24.33
6.33
21.67
0.33
-5.33
4.67
8.67
6.0
9.0
0.0
14.0
11.0
7.0
14.33
6.0
7.0
1.67
8.33
7.33
-3.67
9.67
4.33
9.67
-3.0
3.33
2.33
-3.33
1.0
3.33
1.67
3.33
15.33
2.0
-3.67
-5.0
0.67
2.0
4.67
-6.0
1.67
3.67
5.67
2.33
5.67
-4.33
5.0
9.0
-0.33
2.33
0.33
1.33
-3.33
-1.0
-4.33
2.0
0.0
2.67
5.33
-1.67
1.33
-2.33
-1.0
3.0
-0.67
3.0
8.33
-3.0
1.0
-0.67
2.0
4.33
0.33
-1.0
6.33
5.0
2.0