File: EDX Back Ups and Old Files/Spectra copy 3.3.23/Samples/High pH BL Ref/9.75.txt
0.0
30.67
69.67
-27.67
9.33
1.67
2.33
0.0
0.33
0.0
1.0
0.0
1.0
0.0
-1.0
-2.67
-2.33
3.0
1.67
0.67
4.67
-2.67
-1.67
4.0
-6.0
-1.0
3.33
1.67
-2.0
-1.33
3.33
2.67
1.0
12.67
-1.0
0.67
-4.0
8.0
6.0
3.33
-4.67
5.0
2.33
2.67
1.33
6.0
2.0
7.0
-2.33
1.67
-3.33
-1.0
3.33
6.0
9.0
0.67
-0.67
-2.33
1.0
3.0
-0.67
-0.33
-2.0
-2.67
-1.33
-0.67
-2.33
-1.0
1.33
2.67
-2.67
-0.67
-2.0
4.0
0.33
1.0
0.67
-2.67
2.0
-1.0
-1.33
1.67
3.0
1.33
5.0
0.0
-5.67
1.0
0.0
3.0
3.33
-1.0
-1.33
7.67
-0.67
-3.0
-1.33
-0.33
0.0
1.67
-8.67
-4.0
-0.33
-1.33
4.33
-1.33
-2.33
-0.67
-2.0
-7.33
0.0
-1.33
3.0
-1.33
8.33
16.33
20.33
22.0
7.33
-2.33
-7.67
-2.33
1.0
-2.33
0.0
-5.33
-6.0
-2.67
1.0
2.0
2.67
-6.67
3.0
-2.67
8.0
-0.33
-3.33
-2.33
1.33
0.33
-6.33
5.33
6.33
0.0
2.0
-3.0
1.0
9.0
18.33
12.0
10.67
0.67
4.0
-0.33
1.67
-1.67
8.0
8.33
9.0
6.0
-2.33
4.0
13.0
5.67
3.67
6.33
5.67
10.0
10.33
4.0
-4.33
13.33
10.67
5.67
-9.67
14.33
19.67
0.0
14.0
10.33
-4.0
4.0
11.33
25.33
33.33
33.33
36.67
85.33
108.67
102.67
42.67
24.67
9.67
7.67
19.67
3.33
12.67
8.0
4.67
14.67
16.67
1.0
18.33
5.0
6.67
12.67
8.33
0.33
21.0
11.0
9.67
3.33
4.67
3.67
13.0
22.67
16.33
32.0
27.33
7.33
8.67
12.33
3.67
6.67
12.67
-4.0
18.0
2.0
9.0
15.0
-4.0
10.33
3.0
4.0
-11.33
14.33
6.33
-5.67
4.67
8.33
3.67
-4.0
-2.67
-10.67
-2.33
7.0
-3.67
3.67
15.33
-0.67
8.0
-2.67
4.0
4.67
9.0
0.67
1.0
1.67
-5.33
9.67
2.33
-4.33
-5.33
-5.0
0.0
-4.33
-3.67
-2.67
-2.67
3.67
-4.0
-3.33
5.0
3.0
-1.33
-0.67
-3.67
-2.67
5.67
3.0
4.0
12.33
0.0
5.33
-4.0
1.0
-2.67
4.0
6.33
-0.67
-1.0
-0.67
4.0
0.0