File: EDX Back Ups and Old Files/Spectra copy 3.3.23/Samples/High pH BL 60C 4d/10.25.txt
0.0
88.67
-50.33
-17.0
-3.33
-2.67
-0.33
-0.67
0.0
0.0
-0.33
0.67
0.0
1.0
0.0
1.0
-0.33
2.67
-2.0
4.0
-1.0
1.33
2.33
0.33
2.0
7.0
2.67
-0.33
-8.33
6.0
-1.33
-8.33
5.67
-5.33
8.33
-1.33
-2.33
0.0
-3.33
-1.0
-1.0
-3.67
7.0
3.33
-2.0
-4.0
-1.0
0.33
0.33
2.33
-0.67
-1.0
1.0
-4.0
5.33
-1.0
3.33
-0.33
1.67
5.67
1.0
0.33
2.33
-0.33
-2.67
5.0
3.0
-3.0
0.33
4.33
-5.67
-4.0
-1.67
3.0
6.33
1.0
-1.67
4.33
5.33
0.33
2.33
-3.0
-1.67
-3.33
-3.0
0.33
-2.67
1.0
2.33
1.67
-2.67
2.0
1.33
-5.33
-5.0
-0.33
1.33
-5.33
-2.67
0.33
0.0
6.67
-3.67
-2.67
0.67
-7.33
-8.67
-4.67
-6.0
-1.67
-1.0
-10.0
2.33
-3.0
2.33
15.67
45.33
31.0
2.0
0.67
-4.33
-1.67
0.67
-5.33
-7.33
-5.33
-1.0
-0.33
-4.67
-2.0
-4.67
-3.0
-5.67
-10.0
-5.67
-3.0
-3.67
-16.0
3.33
-9.67
-0.67
-3.67
-1.0
-8.67
-7.67
1.67
-2.33
8.67
9.33
11.67
3.0
-2.67
3.67
7.67
7.0
-3.67
12.67
-1.67
-3.0
7.0
-4.67
4.33
1.33
1.0
3.67
10.0
2.33
2.67
6.33
8.33
0.67
6.33
0.0
-2.0
-2.33
3.33
9.0
0.33
12.33
4.67
4.67
9.0
9.33
17.0
22.67
36.33
61.33
108.33
136.33
127.67
51.33
27.67
5.33
16.67
-2.0
4.67
17.33
-2.33
12.0
15.67
0.67
2.0
-1.33
8.33
-6.0
16.67
0.0
-1.67
1.0
5.0
11.33
-2.33
7.33
4.0
11.0
23.67
29.0
30.67
20.33
14.67
23.33
5.0
20.67
5.33
12.0
7.33
2.67
15.0
6.67
-1.67
-4.67
1.33
-1.0
10.67
5.0
-4.33
-0.67
-2.0
-3.67
-4.33
9.67
1.67
7.0
4.33
9.33
-1.33
-3.33
9.67
1.0
4.33
6.33
-7.67
8.67
0.67
-1.67
-1.0
-5.33
5.67
-2.33
-1.0
2.67
3.67
0.33
0.33
9.0
-1.33
-6.33
-6.0
-2.67
2.67
2.67
3.0
4.0
-2.67
1.67
0.67
-7.33
0.67
-2.0
4.0
2.33
6.67
3.0
-1.33
-3.33
-2.0
1.0
-1.33
-5.0
-8.0
2.67
4.0
-1.67
6.33