File: EDX Back Ups and Old Files/Spectra copy 3.3.23/Samples/High pH BL 60C 4d/10.75.txt
0.0
94.67
-50.33
-4.0
-2.33
-1.67
0.67
-0.67
0.0
1.0
-0.33
0.67
-1.0
1.0
1.0
-2.0
-0.33
-0.33
-2.0
-2.0
-1.0
3.33
-3.67
-4.67
-3.0
9.0
0.67
-5.33
-4.33
6.0
1.67
-4.33
4.67
3.67
6.33
-0.33
0.67
3.0
-0.33
2.0
2.0
1.33
4.0
1.33
-1.0
-3.0
5.0
0.33
-4.67
1.33
-0.67
0.0
-5.0
-5.0
1.33
-1.0
2.33
7.67
2.67
-2.33
-3.0
-7.67
4.33
-3.33
2.33
0.0
1.0
4.0
2.33
-0.67
-2.67
1.0
3.33
-6.0
-1.67
-1.0
-3.67
5.33
1.33
3.33
3.33
1.0
-4.67
2.67
4.0
0.33
4.33
0.0
0.33
-2.33
-1.67
3.0
2.33
-2.33
0.0
-2.33
-1.67
-3.33
-0.67
-0.67
-2.0
-0.33
-7.67
-3.67
-0.33
-6.33
-6.67
-3.67
-6.0
-1.67
-1.0
-12.0
-5.67
1.0
0.33
17.67
33.33
19.0
-2.0
-3.33
-0.33
-4.67
-2.33
-3.33
-6.33
-9.33
-9.0
-1.33
-5.67
-6.0
-5.67
4.0
-1.67
-7.0
-5.67
-5.0
-5.67
-9.0
-5.67
-6.67
2.33
-7.67
3.0
-8.67
-6.67
8.67
-4.33
10.67
5.33
5.67
3.0
-1.67
-1.33
4.67
7.0
0.33
5.67
1.33
0.0
4.0
1.33
2.33
1.33
3.0
-0.33
6.0
6.33
6.67
-0.67
-4.67
6.67
1.33
11.0
9.0
10.67
3.33
9.0
2.33
4.33
11.67
11.67
10.0
11.33
24.0
33.67
28.33
53.33
94.33
154.33
126.67
72.33
29.67
5.33
0.67
3.0
-3.33
12.33
7.67
11.0
11.67
16.67
3.0
4.67
16.33
13.0
18.67
0.0
11.33
12.0
-9.0
10.33
-11.33
7.33
6.0
7.0
-3.33
29.0
26.67
12.33
16.67
7.33
8.0
5.67
4.33
2.0
4.33
0.67
16.0
2.67
12.33
-10.67
5.33
6.0
6.67
6.0
-10.33
3.33
1.0
0.33
-13.33
6.67
9.67
-8.0
-1.67
-1.67
2.67
10.67
-0.33
1.0
0.33
10.33
4.33
-4.33
-4.33
1.33
3.0
1.67
3.67
-2.33
0.0
4.67
12.67
3.33
1.33
3.0
5.67
-9.33
1.0
-3.67
4.67
1.67
-1.0
-1.0
6.33
1.67
3.67
-5.33
2.67
-1.0
5.0
6.33
0.67
7.0
0.67
-1.33
4.0
-4.0
-4.33
-2.0
-5.0
5.67
-2.0
-0.67
-0.67