File: EDX Back Ups and Old Files/Spectra copy 3.3.23/Samples/High pH BL 60C 4d/11.5.txt
0.0
-94.33
-53.33
-7.0
0.67
1.33
0.67
0.33
0.0
0.0
0.67
-0.33
0.0
2.0
0.0
-2.0
-2.33
3.67
1.0
-4.0
-1.0
3.33
-8.67
5.33
3.0
2.0
-0.33
2.67
5.67
6.0
-0.33
-8.33
-0.33
-0.33
2.33
0.67
0.67
0.0
-2.33
3.0
-2.0
-1.67
6.0
2.33
2.0
3.0
11.0
1.33
-3.67
4.33
0.33
-2.0
-1.0
0.0
3.33
0.0
-3.67
-0.33
3.67
-0.33
-4.0
-5.67
8.33
-5.33
0.33
2.0
8.0
5.0
-3.67
0.33
-1.67
-4.0
0.33
-3.0
0.33
-1.0
-2.67
-1.67
6.33
-0.67
-2.67
-1.0
-4.67
-1.33
-4.0
-3.67
1.33
-5.0
-4.67
4.67
-1.67
3.0
-4.67
-0.33
-4.0
3.67
0.33
-5.33
-3.67
-5.67
-2.0
0.67
-1.67
-0.67
-3.33
-8.33
-4.67
-6.67
0.0
-3.67
6.0
-8.0
-4.67
-4.0
4.33
5.67
8.33
8.0
0.0
-2.33
-8.33
-6.67
-1.33
-10.33
-5.33
-9.33
-6.0
2.67
-2.67
-6.0
-4.67
-2.0
-2.67
-4.0
-7.67
-2.0
-7.67
-12.0
-8.67
-1.67
-7.67
-1.67
-3.0
-3.67
-4.67
0.67
3.67
12.67
34.33
27.67
14.0
4.33
1.67
-5.33
2.0
9.33
4.67
-3.67
0.0
-3.0
1.33
2.33
0.33
12.0
13.67
1.0
4.33
4.67
5.33
-12.67
-1.33
6.33
7.0
4.0
8.67
1.33
5.0
2.33
8.33
2.67
5.67
4.0
9.33
9.0
14.67
52.33
88.33
141.33
188.33
190.67
84.33
21.67
11.33
7.67
7.0
2.67
3.33
13.67
26.0
20.67
6.67
8.0
3.67
5.33
7.0
13.67
4.0
0.33
3.0
5.0
9.33
-4.33
5.33
-1.0
-4.0
11.67
27.0
22.67
16.33
-2.33
3.33
5.0
-2.33
6.33
9.0
-3.67
7.67
28.0
9.67
8.33
-9.67
8.33
0.0
2.67
14.0
-6.33
6.33
7.0
-3.67
-0.33
11.67
-0.33
5.0
3.33
-2.67
-8.33
8.67
14.67
12.0
4.33
10.33
-3.67
4.67
2.67
1.33
4.0
5.67
-1.33
4.67
4.0
-4.33
4.67
5.33
8.33
4.0
0.67
-5.33
-5.0
-3.67
-1.33
5.67
5.0
3.0
6.33
3.67
6.67
4.67
1.67
-4.0
1.0
2.33
-3.33
5.0
7.67
-1.33
-2.0
7.0
-2.33
-4.0
-5.0
-1.33
0.0
-0.67
1.33