File: EDX Back Ups and Old Files/Spectra copy 3.3.23/Samples/High pH BL 60C 4d/11.75.txt
0.0
-4.33
-18.33
-20.0
-2.33
-1.67
0.67
-0.67
1.0
0.0
-0.33
-0.33
0.0
2.0
-1.0
-1.0
0.67
3.67
0.0
2.0
5.0
-3.67
-1.67
0.33
3.0
1.0
2.67
3.67
-0.33
2.0
-2.33
0.67
-3.33
2.67
7.33
11.67
-0.33
1.0
4.67
0.0
-1.0
4.33
-2.0
6.33
4.0
4.0
0.0
3.33
4.33
6.33
5.33
1.0
-2.0
-3.0
0.33
-1.0
0.33
4.67
-1.33
3.67
-1.0
-4.67
1.33
-1.33
0.33
2.0
4.0
-4.0
2.33
7.33
-3.67
0.0
0.33
-3.0
1.33
1.0
0.33
-0.67
2.33
2.33
-2.67
-5.0
5.33
-6.33
-2.0
0.33
0.33
2.0
0.33
-0.33
-2.67
0.0
-0.67
-6.33
-2.0
-1.33
-1.67
-4.33
-4.67
1.33
0.0
0.67
-5.67
-4.67
-3.33
-11.33
-5.67
-2.67
-6.0
-0.67
2.0
-5.0
-4.67
-3.0
-3.67
6.67
11.33
3.0
-1.0
-0.33
-5.33
-16.67
-3.33
-4.33
-8.33
-12.33
-6.0
-4.33
-9.67
1.0
-7.67
-6.0
-1.67
-5.0
-5.67
0.0
-7.67
-13.0
2.33
1.33
-3.67
-5.67
3.0
-3.67
-11.67
5.67
3.67
23.67
16.33
31.67
17.0
-2.67
3.67
4.67
10.0
4.33
3.67
-3.67
4.0
-3.0
1.33
1.33
6.33
-1.0
9.67
2.0
3.33
7.67
0.33
3.33
4.67
8.33
6.0
-3.0
3.67
-4.67
12.0
10.33
8.33
7.67
11.67
4.0
9.33
6.0
20.67
44.33
98.33
160.33
195.33
198.67
101.33
29.67
2.33
5.67
7.0
8.67
12.33
1.67
5.0
7.67
6.67
2.0
5.67
13.33
3.0
5.67
9.0
6.33
8.0
8.0
14.33
-17.33
1.33
-6.0
2.0
-0.33
18.0
4.67
1.33
14.67
15.33
4.0
-3.33
6.33
-2.0
0.33
1.67
20.0
2.67
10.33
5.33
-8.67
2.0
0.67
12.0
-5.33
8.33
0.0
-5.67
0.67
-5.33
4.67
-3.0
-1.67
5.33
-1.33
-6.33
-0.33
4.0
3.33
-1.67
7.33
12.67
5.67
1.33
-1.0
1.67
-0.33
4.67
-1.0
3.67
11.67
0.33
5.33
-5.0
0.67
-7.33
6.0
-2.67
-1.33
1.67
6.0
11.0
0.33
6.67
2.67
-4.33
-1.33
-7.0
4.0
2.33
2.67
3.0
-2.33
2.67
6.0
0.0
0.67
-1.0
-3.0
2.67
4.0
-0.67
-0.67