File: EDX Back Ups and Old Files/Spectra copy 3.3.23/Samples/High pH BL 60C 4d/12.25.txt
0.0
47.67
-20.33
-1.0
4.67
-1.67
-0.33
0.33
0.0
0.0
0.67
-0.33
0.0
1.0
0.0
-2.0
-1.33
1.67
0.0
3.0
-2.0
-3.67
-3.67
-3.67
2.0
0.0
1.67
-5.33
-1.33
5.0
-6.33
-3.33
-0.33
-0.33
-2.67
-0.33
0.67
6.0
-1.33
2.0
5.0
-1.67
5.0
-1.67
3.0
2.0
-3.0
-4.67
-5.67
2.33
2.33
2.0
-6.0
-9.0
-0.67
0.0
-0.67
-2.33
5.67
5.67
-4.0
-3.67
2.33
-1.33
0.33
3.0
3.0
1.0
-0.67
-3.67
-3.67
-4.0
0.33
0.0
0.33
-2.0
-2.67
-1.67
2.33
0.33
0.33
1.0
-5.67
-1.33
6.0
1.33
1.33
1.0
2.33
-1.33
-1.67
-2.0
-0.67
-0.33
2.0
0.67
1.33
-5.33
-3.67
3.33
-6.0
-1.33
-7.67
-4.67
-4.33
-0.33
-8.67
-4.67
2.0
-3.67
-5.0
-4.0
-2.67
-6.0
0.33
-2.33
9.33
16.0
1.0
-0.33
-3.33
-10.67
-4.33
-6.33
-4.33
-8.33
-10.0
-8.33
-8.67
-15.0
-4.67
-2.0
-13.67
-8.0
-3.67
-4.0
-10.67
-11.0
-4.67
-4.67
-10.67
-13.67
-8.0
-12.67
0.33
-6.33
4.67
4.67
0.33
12.67
-1.0
-2.67
1.67
-1.33
4.0
-0.67
-7.33
-5.67
0.0
-1.0
-2.67
-2.67
-6.67
3.0
5.67
1.0
-1.67
-2.33
5.33
-9.67
-8.33
4.33
17.0
7.0
-1.33
3.33
4.0
4.33
-2.67
9.67
-3.33
0.0
-0.67
16.0
4.67
23.33
85.33
120.33
138.33
124.67
70.33
21.67
3.33
7.67
1.0
-0.33
6.33
-0.33
4.0
9.67
4.67
7.0
-5.33
6.33
4.0
0.67
3.0
-5.67
-3.0
9.0
6.33
-0.33
-3.67
8.0
0.0
6.67
-6.0
4.67
15.33
10.67
-5.67
1.0
13.67
-3.67
-2.0
-8.67
2.67
12.0
17.67
4.33
-19.67
2.33
-7.0
-5.33
4.0
-2.33
3.33
-5.0
5.33
6.67
2.67
6.67
-9.0
0.33
6.33
2.67
1.67
12.67
2.0
2.33
15.33
-7.67
1.67
3.67
-2.67
0.0
5.67
-4.33
-0.33
-4.0
-6.33
3.67
1.33
7.33
5.0
1.67
-5.33
-9.0
-2.67
1.67
-1.33
15.0
8.0
-2.67
7.67
8.67
-1.33
-5.33
-4.0
4.0
8.33
-0.33
1.0
3.67
-0.33
0.0
3.0
-1.33
-8.0
-5.0
0.67
0.0
3.33
-0.67