File: EDX Back Ups and Old Files/Spectra copy 3.3.23/Samples/High pH BL 60C 4d/6.0.txt
0.0
40.67
-63.33
-26.0
6.67
-2.67
0.67
-0.67
0.0
2.0
0.67
0.67
-1.0
1.0
1.0
-2.0
0.67
0.67
-3.0
-4.0
3.0
0.33
0.33
2.33
2.0
3.0
7.67
2.67
0.67
0.0
7.67
-5.33
8.67
0.67
7.33
1.67
3.67
1.0
-1.33
10.0
3.0
-1.67
3.0
9.33
5.0
0.0
2.0
4.33
-0.67
10.33
-3.67
3.0
-3.0
-8.0
-3.67
-2.0
2.33
3.67
1.67
-1.33
1.0
-2.67
3.33
-2.33
12.33
7.0
1.0
3.0
1.33
3.33
4.33
-3.0
-1.67
3.0
1.33
-2.0
-5.67
-0.67
0.33
2.33
2.33
2.0
-2.67
1.67
3.0
1.33
-1.67
0.0
3.33
-1.33
0.33
2.0
5.33
-4.33
0.0
0.67
-4.67
-0.33
-3.67
0.33
4.0
1.67
-4.67
-0.67
1.67
-7.33
-7.67
-2.67
-2.0
-3.67
1.0
-5.0
-4.67
-2.0
-0.67
8.67
25.33
17.0
-2.0
-3.33
-0.33
-7.67
-7.33
-4.33
-3.33
-11.33
-9.0
-5.33
-8.67
-9.0
-5.67
-3.0
1.33
-14.0
-2.67
0.0
-5.67
-13.0
-3.67
-3.67
-0.67
-5.67
1.0
-5.67
-10.67
1.67
-3.33
4.67
10.33
4.67
-3.0
0.33
-1.33
4.67
-5.0
1.33
8.67
-4.67
6.0
-1.0
4.33
9.33
2.33
-1.0
15.67
-9.0
12.33
3.67
-6.67
-3.67
4.67
4.33
14.0
2.0
10.67
10.33
5.0
-1.67
1.33
6.67
3.67
0.0
1.33
18.0
12.67
17.33
41.33
59.33
71.33
85.67
35.33
15.67
2.33
6.67
-2.0
16.67
9.33
3.67
22.0
11.67
8.67
-2.0
-3.33
0.33
5.0
9.67
9.0
5.33
11.0
-6.0
6.33
-4.33
18.33
0.0
7.0
27.67
29.0
35.67
28.33
22.67
12.33
11.0
9.67
8.33
-1.0
8.33
17.67
19.0
-0.33
3.33
-0.67
2.33
-3.0
9.67
-5.0
6.67
8.33
4.0
-1.67
-2.33
-0.33
-3.33
8.0
10.33
5.33
1.67
0.67
7.67
3.0
1.33
1.33
-4.67
-2.33
4.67
13.33
2.0
5.67
4.67
0.67
0.0
5.67
10.67
4.33
2.33
5.0
-0.33
-7.33
-2.0
3.33
-0.33
8.67
11.0
0.0
4.33
2.67
-3.33
-7.33
-4.33
-4.0
2.0
3.33
10.67
5.0
4.67
4.67
3.0
1.0
-2.33
-2.0
-6.0
5.67
3.0
2.33
-3.67