File: EDX Back Ups and Old Files/Spectra copy 3.3.23/Samples/High pH BL 60C 4d/8.5.txt
0.0
122.67
-31.33
-18.0
0.67
-1.67
0.67
0.33
0.0
1.0
-0.33
0.67
0.0
0.0
1.0
2.0
1.67
-1.33
1.0
-1.0
2.0
-1.67
-3.67
1.33
-4.0
3.0
-0.33
0.67
1.67
0.0
-3.33
-5.33
9.67
2.67
6.33
1.67
-0.33
-5.0
1.67
8.0
-1.0
1.33
1.0
3.33
8.0
4.0
-1.0
-0.67
2.33
3.33
-1.67
2.0
-2.0
-4.0
-0.67
3.0
4.33
-3.33
5.67
-2.33
0.0
-2.67
4.33
-3.33
-0.67
-2.0
2.0
1.0
-0.67
3.33
-1.67
-3.0
-3.67
0.0
3.33
0.0
-3.67
1.33
-0.67
5.33
-0.67
-5.0
6.33
-1.33
4.0
1.33
-1.67
1.0
0.33
0.67
3.33
-1.0
2.33
-3.33
3.0
-1.33
-1.67
-7.33
-0.67
-1.67
-2.0
-1.33
-4.67
-2.67
-3.33
-2.33
-11.67
4.33
-7.0
-2.67
-2.0
-5.0
-5.67
-6.0
7.33
5.67
11.33
6.0
12.0
-2.33
0.67
-3.67
-8.33
-1.33
-9.33
-9.33
-5.0
-7.33
-0.67
-10.0
-6.67
-6.0
-4.67
-2.0
-9.67
-4.0
-6.67
-10.0
-7.67
5.33
-1.67
-12.67
-8.0
-3.67
-12.67
-2.33
0.67
1.67
12.33
3.67
3.0
5.33
-2.33
7.67
-4.0
7.33
7.67
-2.67
3.0
-2.0
3.33
2.33
1.33
2.0
5.67
5.0
-4.67
7.67
-1.67
11.33
-0.33
2.33
17.0
-2.0
-0.33
3.33
20.0
9.33
3.33
3.67
0.67
9.0
9.33
16.0
20.67
37.33
46.33
68.33
83.33
70.67
44.33
13.67
6.33
8.67
5.0
-3.33
9.33
-6.33
6.0
6.67
13.67
9.0
1.67
13.33
13.0
14.67
5.0
8.33
5.0
4.0
10.33
2.67
10.33
-1.0
15.0
16.67
27.0
16.67
37.33
21.67
4.33
-1.0
16.67
-6.67
1.0
12.33
0.67
13.0
18.67
12.33
-7.67
-2.67
6.0
-5.33
14.0
-3.33
4.33
3.0
-6.67
13.67
3.67
7.67
8.0
6.33
13.33
-1.33
-12.33
3.67
-1.0
8.33
12.33
6.33
1.67
7.67
-0.67
4.0
0.67
0.67
-4.33
-3.0
-2.33
-5.33
2.33
5.33
0.0
3.67
-1.33
1.0
-0.67
13.67
1.67
13.0
4.0
-4.67
6.67
-6.33
1.67
-6.33
7.0
2.0
6.33
2.67
6.0
2.67
5.67
4.0
1.0
-6.33
-2.0
-2.0
1.67
-1.0
0.33
1.33