File: EDX Back Ups and Old Files/Spectra copy 3.3.23/Samples/High pH BL 60C 4d/background.txt
0.0
1732.33
1083.33
259.0
37.33
4.67
0.33
0.67
0.0
0.0
0.33
0.33
1.0
0.0
1.0
2.0
2.33
2.33
5.0
7.0
8.0
11.67
12.67
9.67
10.0
8.0
9.33
11.33
14.33
8.0
12.33
14.33
7.33
11.33
8.67
8.33
10.33
10.0
10.33
9.0
10.0
11.67
8.0
9.67
7.0
11.0
10.0
7.67
12.67
6.67
7.67
10.0
11.0
13.0
7.67
10.0
7.67
7.33
6.33
8.33
8.0
11.67
4.67
9.33
6.67
7.0
3.0
6.0
6.67
5.67
7.67
9.0
7.67
8.0
5.67
6.0
8.67
4.67
4.67
3.67
4.67
7.0
8.67
7.33
5.0
4.67
4.67
6.0
4.67
5.33
5.67
5.0
6.67
8.33
7.0
7.33
6.67
11.33
8.67
8.67
8.0
7.33
11.67
9.67
9.33
15.33
15.67
11.67
11.0
11.67
11.0
16.0
11.67
14.0
11.67
12.33
13.67
14.0
19.0
13.33
14.33
18.67
15.33
16.33
19.33
19.33
19.0
17.33
18.67
22.0
21.67
18.0
19.67
22.0
21.67
15.0
20.67
24.0
18.67
18.67
16.67
22.67
18.0
23.67
23.67
17.33
21.33
21.33
16.67
20.33
18.0
23.67
16.33
14.33
15.0
17.67
17.33
16.67
14.0
13.0
14.67
13.67
16.67
21.0
29.33
22.0
15.67
15.33
30.67
46.67
25.33
14.67
12.0
16.0
13.33
15.67
11.0
15.67
16.67
13.33
15.33
18.0
16.67
16.0
19.33
16.67
19.67
22.67
21.67
22.33
24.67
29.33
26.67
20.33
24.0
25.33
23.67
28.33
22.0
18.33
22.33
22.0
28.33
22.67
28.0
23.33
30.0
24.67
26.0
29.0
24.67
34.33
27.67
31.0
32.0
30.33
29.0
28.33
28.67
31.33
29.67
31.0
25.33
27.67
32.0
29.67
33.33
22.0
29.33
28.67
37.67
29.67
29.0
27.33
24.0
30.33
21.67
24.0
25.67
25.33
20.33
19.33
25.0
22.67
21.67
25.33
26.33
19.33
22.0
21.67
20.67
26.67
19.33
17.33
15.67
17.0
16.33
17.33
17.33
17.0
14.33
14.33
12.67
11.67
12.0
14.33
17.33
16.0
17.67
11.33
11.33
10.0
10.0
13.67
8.33
11.33
13.33
12.33
12.0
9.0
7.67
8.33
8.0
8.33
10.33
8.0
7.0
11.33
11.0
14.0
6.33
7.0
8.67
9.67