File: EDX Back Ups and Old Files/Spectra copy 3.3.23/Samples/High pH SF 25C 4d/10.0.txt
0.0
-17.33
-97.33
-16.33
2.67
1.33
1.33
1.0
-1.0
0.67
-0.33
-0.33
0.67
0.33
0.67
-3.33
2.67
2.33
2.67
0.0
1.67
-4.0
6.0
-3.67
2.67
-4.0
0.67
-2.0
6.67
8.33
-4.67
6.67
7.33
0.67
-4.0
7.67
5.33
10.0
-3.33
2.67
0.33
-2.33
-7.0
6.33
-1.33
9.0
5.33
-0.67
2.0
1.67
0.0
2.67
1.67
-2.33
2.33
4.0
-5.67
0.67
0.0
-0.33
7.0
1.33
6.33
-0.33
0.33
1.33
-1.67
2.0
0.67
-5.67
-1.67
0.67
-5.67
1.33
1.0
1.0
2.67
3.0
2.0
-1.33
-0.33
1.67
-1.67
1.33
0.33
0.0
-1.33
0.33
-4.33
-1.33
-3.0
-6.67
-5.33
1.67
-1.33
1.0
-3.33
0.0
-5.0
-0.67
-2.67
-1.33
-4.0
-4.0
-0.33
-8.67
-1.67
-0.33
-9.0
-0.33
-2.0
-7.67
-1.67
-1.0
-0.67
17.33
32.67
27.67
1.67
-1.0
-0.33
2.67
-7.0
-4.33
-9.0
-3.67
5.0
2.33
-8.0
-9.67
-6.67
3.33
0.0
-3.0
7.33
-0.33
5.0
-6.33
3.33
-5.0
-4.0
-7.67
-10.67
-3.0
-1.0
-1.67
0.0
14.67
13.67
16.33
-3.0
4.0
12.0
-5.33
-6.67
-1.33
1.67
5.67
4.0
-0.33
4.0
5.33
-0.67
13.33
10.33
0.67
5.33
8.0
11.33
-5.33
2.0
12.0
-2.0
-2.0
15.33
8.0
-3.33
10.0
13.33
-4.0
24.0
10.33
11.33
22.33
22.67
27.67
53.33
89.0
118.67
104.33
65.33
21.33
17.33
-3.33
21.0
15.0
13.0
15.0
6.67
4.67
23.0
12.33
6.0
-0.33
7.67
-0.33
-0.33
3.67
0.0
7.67
-0.67
9.33
0.33
0.67
18.0
23.33
22.33
29.67
31.33
27.67
21.33
0.0
14.67
-0.67
-2.33
12.67
-1.67
1.33
8.0
10.33
6.33
2.67
0.0
-5.0
15.0
1.0
5.0
-11.67
-6.0
1.33
4.67
0.33
2.67
-12.33
14.33
-0.67
2.33
8.33
5.67
-0.33
6.0
-3.67
0.0
4.33
-1.33
-5.33
3.33
4.0
1.0
1.33
-1.67
-3.67
0.0
-3.67
-7.0
-5.67
0.67
0.33
1.0
3.0
5.0
2.33
3.0
5.33
2.0
0.0
1.0
12.33
0.0
10.33
1.67
-4.67
-7.67
0.67
5.67
1.0
-1.67
1.33
1.67
6.33
-2.67
2.33
-1.0
4.0