File: EDX Back Ups and Old Files/Spectra copy 3.3.23/Samples/High pH SF 25C 4d/11.0.txt
0.0
32.67
7.67
-8.33
4.67
1.33
-0.67
1.0
-1.0
-0.33
-0.33
-0.33
-0.33
-0.67
0.67
-0.33
-0.33
2.33
-1.33
-1.0
0.67
-2.0
2.0
-2.67
7.67
-6.0
-0.33
0.0
2.67
7.33
-0.67
7.67
1.33
4.67
-11.0
6.67
8.33
-2.0
3.67
0.67
1.33
-7.33
0.0
-0.67
5.67
1.0
3.33
-0.67
2.0
2.67
1.0
3.67
2.67
-0.33
-4.67
1.0
-2.67
-2.33
0.0
-1.33
4.0
0.33
1.33
-1.33
1.33
-2.67
2.33
-1.0
-2.33
4.33
0.33
1.67
-5.67
4.33
3.0
0.0
3.67
2.0
-2.0
0.67
-1.33
3.67
1.33
-0.67
-2.67
0.0
4.67
-1.67
-0.33
-0.33
-2.0
-0.67
-4.33
0.67
0.67
3.0
-0.33
-3.0
-4.0
-4.67
-1.67
1.67
-5.0
-6.0
-2.33
-3.67
-4.67
-1.33
-6.0
-1.33
-8.0
1.33
-5.67
-2.0
0.33
41.33
29.67
29.67
2.67
-2.0
-3.33
-4.33
6.0
0.67
0.0
-2.67
2.0
-1.67
5.0
-9.67
-0.67
-0.67
-5.0
-8.0
2.33
6.67
9.0
5.67
-2.67
3.0
-5.0
0.33
-5.67
0.0
-4.0
-0.67
5.0
28.67
15.67
12.33
1.0
4.0
2.0
1.67
6.33
10.67
4.67
9.67
13.0
2.67
4.0
1.33
5.33
8.33
9.33
4.67
9.33
15.0
17.33
15.67
6.0
0.0
-3.0
6.0
6.33
9.0
8.67
13.0
3.33
19.0
14.0
4.33
21.33
22.33
21.67
33.67
65.33
123.0
158.67
136.33
75.33
21.33
13.33
-0.33
29.0
2.0
7.0
29.0
10.67
-1.33
24.0
9.33
9.0
6.67
9.67
5.67
2.67
19.67
3.0
10.67
3.33
12.33
2.33
4.67
10.0
6.33
22.33
25.67
36.33
22.67
2.33
10.0
8.67
5.33
0.67
5.67
12.33
8.33
2.0
6.33
8.33
2.67
1.0
7.0
6.0
-1.0
3.0
0.33
-6.0
2.33
3.67
0.33
-3.33
-9.33
7.33
2.33
7.33
4.33
6.67
1.67
8.0
4.33
5.0
-3.67
1.67
5.67
5.33
-9.0
3.0
-1.67
-5.67
3.33
6.0
5.33
4.0
1.33
-7.33
11.33
-1.0
6.0
0.0
3.33
4.0
2.33
5.0
1.0
6.0
9.33
-4.0
1.33
2.67
-0.67
0.33
1.67
-1.33
10.0
-5.67
-4.67
0.67
0.33
-3.67
2.33
1.0
2.0