File: EDX Back Ups and Old Files/Spectra copy 3.3.23/Samples/High pH SF 25C 4d/12.0.txt
0.0
45.67
-15.33
1.67
2.67
2.33
0.33
0.0
-1.0
-0.33
-0.33
0.67
-0.33
-0.67
-0.33
-1.33
-0.33
1.33
1.67
3.0
0.67
-4.0
3.0
-0.67
7.67
3.0
-0.33
-8.0
5.67
8.33
-3.67
2.67
-2.67
6.67
-6.0
6.67
-2.67
-4.0
5.67
0.67
-2.67
-6.33
-4.0
6.33
2.67
-2.0
8.33
1.33
-1.0
-2.33
3.0
0.67
-5.33
-2.33
5.33
6.0
-2.67
5.67
6.0
-0.33
6.0
-1.67
8.33
-0.33
-2.67
4.33
1.33
0.0
-1.33
-0.67
3.33
-1.33
-0.67
0.33
5.0
3.0
3.67
8.0
-1.0
1.67
4.67
2.67
-1.67
-4.67
-1.67
0.0
-0.33
2.33
-0.33
1.67
-1.0
-1.67
-2.33
-1.33
-3.33
-2.0
-2.33
4.0
-5.0
-0.67
-3.67
-3.33
-5.0
0.0
-4.33
-4.67
1.33
-2.33
-9.0
3.67
-2.0
-0.67
-1.67
-7.0
-3.67
-4.67
-3.33
-5.33
-5.33
0.0
-7.33
-3.33
0.0
-4.33
-6.0
0.33
1.0
-3.67
-9.0
-8.67
4.33
0.33
-3.0
-12.0
0.33
-0.33
3.0
0.67
0.33
0.0
-8.0
-1.67
-11.67
7.0
-4.0
5.33
12.0
16.67
18.67
26.33
12.0
10.0
7.0
-3.33
15.33
9.67
7.67
5.67
12.0
2.67
1.0
7.33
3.33
4.33
1.33
-2.33
17.33
13.0
9.33
1.67
11.0
4.0
9.0
5.0
5.33
8.0
5.67
6.0
10.33
5.0
4.0
1.33
7.33
7.33
23.67
38.67
125.33
217.0
283.67
259.33
126.33
21.33
11.33
-7.33
18.0
10.0
4.0
16.0
5.67
5.67
19.0
-3.67
-3.0
5.67
5.67
8.67
6.67
4.67
5.0
3.67
1.33
9.33
6.33
-7.33
7.0
4.33
4.33
7.67
1.33
-2.33
9.33
1.0
9.67
7.33
-5.33
13.67
16.33
9.33
20.0
6.33
14.33
-1.33
9.0
-11.0
-2.0
5.0
8.0
-4.67
-5.0
7.33
-1.33
4.33
-4.33
-7.33
13.33
2.33
3.33
5.33
8.67
1.67
10.0
0.33
12.0
-4.67
3.67
-2.33
2.33
-4.0
-3.0
3.33
-7.67
0.33
2.0
-3.67
-3.0
-8.67
-3.33
-2.67
-1.0
6.0
-7.0
-2.67
18.0
7.33
-2.0
-2.0
2.0
-2.67
3.0
7.33
5.67
4.33
6.33
4.67
-2.33
2.0
5.33
4.33
1.67
3.33
0.33
1.33
-3.0
4.0