File: EDX Back Ups and Old Files/Spectra copy 3.3.23/Samples/High pH SF 25C 4d/7.0.txt
0.0
-49.33
-38.33
8.67
-6.33
3.33
0.33
0.0
-1.0
-0.33
-0.33
-0.33
0.67
-0.67
-0.33
-0.33
-1.33
0.33
3.67
1.0
4.67
-6.0
0.0
2.33
3.67
1.0
1.67
5.0
9.67
3.33
3.33
0.67
-1.67
3.67
-1.0
5.67
9.33
2.0
2.67
2.67
-1.67
-0.33
-5.0
5.33
-0.33
5.0
3.33
2.33
3.0
3.67
4.0
5.67
2.67
-0.33
4.33
3.0
0.33
-2.33
4.0
2.67
7.0
3.33
1.33
6.67
8.33
1.33
-0.67
1.0
-1.33
-1.67
2.33
2.67
-1.67
-0.67
0.0
4.0
-2.33
1.0
3.0
6.67
2.67
-0.33
-1.67
-1.67
-0.67
9.0
3.67
1.33
3.67
-4.33
-2.0
-4.67
-2.33
-2.33
-0.33
1.0
0.67
-1.0
-2.0
-4.67
0.33
-1.33
-2.0
-6.0
-3.33
-2.67
-0.67
0.67
-6.0
-5.33
-5.0
-7.67
-3.67
-2.0
-0.67
10.33
29.67
16.67
0.67
-1.0
-10.33
-4.33
0.0
-0.33
2.0
-3.67
8.0
-8.67
-3.0
-15.67
1.33
-2.67
-7.0
-1.0
-2.67
-2.33
-9.0
-0.33
-0.67
-6.0
-5.0
1.33
-8.67
-8.0
-6.0
1.33
-1.0
18.67
5.67
1.33
-5.0
13.0
1.0
-4.33
12.33
3.67
2.67
3.67
8.0
7.67
10.0
2.33
4.33
18.33
3.33
0.67
1.33
18.0
3.33
23.67
11.0
0.0
5.0
-4.0
14.33
2.0
11.67
12.0
8.33
13.0
7.0
3.33
-0.67
14.33
9.67
19.67
38.33
66.0
91.67
94.33
44.33
15.33
11.33
0.67
11.0
9.0
8.0
5.0
7.67
10.67
15.0
10.33
7.0
3.67
9.67
5.67
1.67
4.67
6.0
1.67
0.33
21.33
10.33
2.67
7.0
10.33
13.33
46.67
35.33
8.67
1.33
11.0
11.67
1.33
-8.33
9.67
2.33
-4.67
3.0
9.33
5.33
1.67
6.0
-9.0
8.0
4.0
10.0
4.33
3.0
5.33
7.67
-4.67
9.67
3.67
5.33
-3.67
0.33
9.33
3.67
6.67
11.0
-1.67
1.0
2.33
6.67
-6.33
-0.67
6.0
11.0
-7.67
0.33
7.33
-1.0
3.33
0.0
-3.67
5.67
5.33
1.0
0.0
14.0
2.33
9.0
10.33
-4.0
5.0
-1.0
0.33
1.0
11.33
0.67
3.33
3.33
2.67
-1.33
-1.0
-0.67
2.33
1.67
4.33
-2.67
0.33
-1.0
4.0