File: EDX Back Ups and Old Files/Spectra copy 3.3.23/Samples/High pH SF 25C 4d/7.25.txt
0.0
38.67
-13.33
-8.33
12.67
3.33
0.33
1.0
-1.0
0.67
0.67
-0.33
0.67
0.33
-0.33
-0.33
0.67
1.33
-2.33
0.0
3.67
4.0
6.0
1.33
2.67
2.0
-1.33
-4.0
2.67
0.33
-0.67
3.67
8.33
2.67
-3.0
-5.33
3.33
0.0
-1.33
-0.33
7.33
5.67
2.0
0.33
-1.33
0.0
2.33
-1.67
0.0
3.67
13.0
8.67
6.67
1.67
-2.67
0.0
0.33
1.67
4.0
4.67
5.0
3.33
5.33
2.67
3.33
-1.67
2.33
9.0
0.67
-2.67
1.33
-3.33
-5.67
3.33
5.0
2.0
1.67
4.0
-3.0
-0.33
-1.33
4.67
1.33
7.33
-0.67
5.0
0.67
1.33
-2.33
1.67
1.0
-0.67
-0.33
0.67
0.67
-1.0
-2.33
4.0
-3.0
1.33
-5.67
-1.33
-6.0
-3.0
3.67
-3.67
1.33
-3.33
-10.0
0.67
-3.0
5.33
-6.67
-3.0
1.33
9.33
21.67
13.67
-2.33
-5.0
-3.33
-9.33
0.0
-0.33
-5.0
-1.67
6.0
-0.67
2.0
-11.67
4.33
-2.67
0.0
-11.0
0.33
1.67
2.0
1.67
-0.67
-8.0
-1.0
-2.67
-1.67
-2.0
-5.0
-3.67
-4.0
6.67
19.67
14.33
5.0
8.0
2.0
0.67
3.33
1.67
3.67
9.67
7.0
3.67
7.0
2.33
12.33
-0.67
11.33
-4.33
6.33
11.0
-1.67
11.67
9.0
-2.0
-4.0
-4.0
3.33
11.0
2.67
8.0
5.33
3.0
11.0
11.33
5.33
14.33
20.67
21.67
47.33
59.0
84.67
66.33
54.33
0.33
13.33
10.67
12.0
8.0
8.0
19.0
0.67
-0.33
20.0
0.33
5.0
14.67
-3.33
-0.33
3.67
6.67
8.0
-1.33
14.33
8.33
1.33
8.67
12.0
7.33
25.33
23.67
37.33
30.67
15.33
13.0
14.67
3.33
-0.33
17.67
3.33
3.33
3.0
5.33
6.33
3.67
8.0
-5.0
2.0
-4.0
1.0
-1.67
-5.0
-4.67
11.67
-9.67
6.67
-6.33
2.33
-8.67
5.33
6.33
3.67
-1.33
2.0
-8.67
1.0
-1.67
0.67
5.67
4.33
0.0
7.0
-2.67
-0.67
-2.67
3.0
0.33
0.0
-1.67
1.67
0.33
-3.0
1.0
-1.0
3.33
13.0
2.33
-1.0
1.0
5.0
9.33
10.0
2.33
10.67
-0.67
-1.67
9.67
-1.33
-1.0
3.33
-1.67
-1.33
4.33
2.33
6.33
-1.0
6.0