File: EDX Back Ups and Old Files/Spectra copy 3.3.23/Samples/High pH SF 25C 4d/7.5.txt
0.0
89.67
-27.33
-19.33
4.67
4.33
0.33
0.0
-1.0
-0.33
-0.33
0.67
0.67
0.33
-0.33
-3.33
3.67
-1.67
-1.33
-1.0
4.67
3.0
9.0
-0.67
5.67
-1.0
0.67
0.0
8.67
2.33
-1.67
2.67
4.33
1.67
-7.0
3.67
7.33
0.0
-1.33
5.67
2.33
-0.33
-5.0
3.33
-2.33
5.0
2.33
-3.67
0.0
-0.33
6.0
0.67
-2.33
1.67
3.33
0.0
2.33
-0.33
0.0
1.67
2.0
5.33
8.33
1.67
-0.67
5.33
1.33
4.0
1.67
-1.67
3.33
-1.33
0.33
0.33
0.0
1.0
3.67
0.0
0.0
-2.33
-3.33
2.67
6.33
-1.67
-1.67
1.0
0.67
0.33
-3.33
4.67
-3.0
-4.67
-1.33
0.67
-1.33
3.0
-5.33
-3.0
3.0
-6.67
-2.67
-2.33
-1.0
-3.0
-0.33
-9.67
-1.67
-6.33
-6.0
-4.33
-3.0
-4.67
-3.67
-6.0
7.33
14.33
10.67
11.67
-0.33
-1.0
0.67
-0.33
-5.0
-0.33
-6.0
0.33
0.0
-3.67
-8.0
-10.67
-4.67
1.33
-3.0
-2.0
5.33
4.67
-6.0
2.67
-3.67
-10.0
-5.0
2.33
-2.67
-4.0
2.0
-4.67
-7.0
18.67
4.67
9.33
2.0
7.0
6.0
-5.33
2.33
10.67
2.67
2.67
18.0
3.67
9.0
10.33
7.33
4.33
4.33
8.67
16.33
8.0
1.33
8.67
9.0
7.0
-1.0
-3.0
10.33
16.0
3.67
13.0
12.33
8.0
9.0
6.33
9.33
29.33
22.67
20.67
42.33
80.0
109.67
76.33
48.33
19.33
16.33
-1.33
23.0
9.0
5.0
5.0
12.67
12.67
9.0
14.33
11.0
13.67
6.67
10.67
-6.33
4.67
6.0
4.67
7.33
14.33
5.33
7.67
17.0
17.33
32.33
20.67
24.33
17.67
19.33
7.0
1.67
11.33
2.67
3.67
8.33
5.33
10.0
12.33
17.33
6.67
18.0
-10.0
1.0
-4.0
3.0
4.33
3.0
-0.67
0.67
-4.67
3.67
-1.33
1.33
-1.67
7.33
5.33
1.67
-0.33
4.0
5.33
-2.0
-3.67
-2.33
-0.33
-4.67
5.0
0.0
-5.67
7.33
0.33
9.0
-3.67
2.0
-5.67
2.67
3.33
-8.0
5.0
0.0
-0.67
8.0
2.33
-1.0
0.0
1.0
2.33
3.0
0.33
-0.33
3.33
-1.67
6.67
0.67
-1.0
-1.67
4.33
3.67
4.33
2.33
1.33
7.0
1.0