File: EDX Back Ups and Old Files/Spectra copy 3.3.23/Samples/High pH SF 25C 4d/9.0.txt
0.0
15.67
46.67
3.67
10.67
0.33
-0.67
0.0
-1.0
-0.33
0.67
-0.33
0.67
-0.67
0.67
-2.33
-0.33
3.33
0.67
5.0
3.67
0.0
5.0
1.33
1.67
5.0
-2.33
3.0
7.67
4.33
-1.67
0.67
-0.67
4.67
-8.0
5.67
2.33
1.0
0.67
1.67
-1.67
-0.33
-2.0
7.33
7.67
4.0
-2.67
-1.67
1.0
-1.33
-2.0
1.67
-1.33
4.67
-3.67
1.0
-0.67
-0.33
5.0
-2.33
3.0
2.33
-0.67
2.67
-0.67
3.33
0.33
4.0
-0.33
-2.67
3.33
1.67
-6.67
0.33
3.0
2.0
-1.33
6.0
1.0
11.67
4.67
4.67
-2.67
-1.67
-2.67
5.0
1.67
-0.67
-1.33
-1.33
-3.0
-1.67
-2.33
-0.33
-2.33
6.0
-4.33
-4.0
0.0
8.33
-3.67
-3.33
-2.0
-2.0
-1.33
-2.67
-3.67
-3.33
-8.0
-4.33
-4.0
-9.67
-8.67
-5.0
3.33
12.33
25.67
19.67
6.67
-1.0
-5.33
-6.33
-2.0
-0.33
-7.0
-4.67
3.0
1.33
-3.0
-10.67
-2.67
-0.67
1.0
-4.0
-2.67
-1.33
-2.0
-2.33
0.33
-12.0
1.0
-11.67
-3.67
-2.0
4.0
-5.67
1.0
22.67
18.67
5.33
7.0
8.0
14.0
5.67
1.33
10.67
1.67
8.67
4.0
3.67
7.0
8.33
-0.67
8.33
11.33
11.67
18.33
7.0
0.33
9.67
5.0
3.0
-2.0
7.0
16.33
14.0
9.67
6.0
12.33
2.0
13.0
10.33
10.33
19.33
10.67
28.67
40.33
89.0
118.67
99.33
53.33
19.33
12.33
3.67
19.0
2.0
1.0
12.0
4.67
6.67
20.0
4.33
3.0
15.67
3.67
14.67
5.67
10.67
10.0
11.67
4.33
4.33
-1.67
3.67
1.0
3.33
33.33
36.67
39.33
22.67
4.33
4.0
9.67
8.33
0.67
18.67
11.33
-0.67
22.0
13.33
25.33
-4.33
9.0
-1.0
12.0
-7.0
3.0
6.33
-4.0
-3.67
-1.33
3.33
3.67
-13.33
7.33
3.33
12.33
-0.67
5.67
1.67
3.0
-1.67
9.0
0.33
-2.33
-1.33
-0.67
-1.0
2.0
3.33
2.33
2.33
7.0
6.33
-7.0
1.33
-0.33
-2.67
-3.0
4.0
13.0
5.33
2.0
7.33
3.0
6.0
-4.0
-0.67
-1.0
8.33
2.67
1.33
0.33
-1.33
0.67
-1.0
1.33
1.33
3.67
6.33
3.33
2.33
-5.0
0.0