File: EDX Back Ups and Old Files/Spectra copy 3.3.23/Samples/High pH SF 25C 4d/9.25.txt
0.0
107.67
-6.33
-7.33
-4.33
0.33
0.33
0.0
0.0
-0.33
-0.33
0.67
-0.33
-0.67
0.67
-1.33
-2.33
1.33
0.67
2.0
0.67
7.0
2.0
-1.67
10.67
0.0
-2.33
-2.0
6.67
8.33
-8.67
5.67
2.33
2.67
-5.0
4.67
9.33
-2.0
0.67
5.67
2.33
-6.33
-1.0
7.33
5.67
6.0
-4.67
3.33
1.0
5.67
4.0
6.67
4.67
-2.33
2.33
5.0
0.33
-2.33
2.0
-0.33
6.0
4.33
4.33
-0.33
3.33
0.33
3.33
2.0
-1.33
-4.67
2.33
-1.33
-1.67
1.33
1.0
0.0
-1.33
3.0
-2.0
3.67
1.67
9.67
-0.67
-2.67
5.33
5.0
0.67
-0.67
-1.33
-0.33
-5.0
-3.67
0.67
1.67
-2.33
1.0
-0.33
2.0
-1.0
-2.67
-4.67
-7.33
-4.0
-3.0
-7.33
-6.67
-4.67
-7.33
-9.0
-3.33
-1.0
-5.67
0.33
-7.0
4.33
3.33
14.67
19.67
0.67
-4.0
0.67
-2.33
-1.0
-7.33
-9.0
-6.67
6.0
-8.67
3.0
-9.67
3.33
-7.67
-7.0
-2.0
0.33
-1.33
-5.0
2.67
7.33
-11.0
-3.0
-3.67
-5.67
-1.0
-4.0
-0.67
-3.0
15.67
14.67
6.33
-5.0
9.0
8.0
-0.33
7.33
2.67
10.67
10.67
9.0
1.67
8.0
5.33
-0.67
8.33
0.33
-0.33
0.33
7.0
3.33
7.67
8.0
16.0
-2.0
5.0
6.33
7.0
3.67
10.0
1.33
4.0
5.0
13.33
18.33
12.33
17.67
22.67
55.33
99.0
95.67
108.33
71.33
23.33
6.33
5.67
10.0
2.0
16.0
15.0
-1.33
7.67
14.0
-2.67
16.0
9.67
23.67
6.67
-0.33
7.67
8.0
8.67
6.33
10.33
10.33
6.67
8.0
20.33
10.33
24.67
24.33
23.67
5.33
6.0
0.67
12.33
-0.33
2.67
11.33
5.33
13.0
-7.67
4.33
-9.33
9.0
-7.0
-1.0
-11.0
15.0
3.33
0.0
-2.67
11.67
-0.67
7.67
-2.33
10.33
-2.67
12.33
10.33
6.67
-0.33
8.0
8.33
-4.0
-4.67
-6.33
3.67
-2.67
2.0
5.0
0.33
-0.67
8.33
15.0
2.33
7.0
-2.67
-6.33
7.33
-5.0
8.0
6.0
-3.67
12.0
5.33
1.0
4.0
-2.0
7.33
1.0
3.33
8.67
-3.67
-3.67
0.67
-2.33
3.0
-0.67
3.33
4.67
4.33
-2.67
3.33
-3.0
2.0