File: EDX Back Ups and Old Files/Spectra copy 3.3.23/Samples/High pH SF 25C 6d/10.25.txt
0.0
-45.67
-2.33
9.67
-6.0
1.67
1.33
0.0
0.0
1.33
0.0
0.33
0.0
-1.33
-1.33
-0.33
1.33
0.0
-2.0
-1.0
-2.0
1.33
-0.33
-0.33
-1.33
1.67
-1.0
-2.33
-4.33
7.67
1.33
0.67
-0.33
-2.0
-3.33
3.33
-1.67
1.0
5.67
1.67
8.33
2.0
4.33
9.0
9.0
12.0
4.33
6.67
4.0
3.33
1.33
0.33
-2.67
4.0
7.67
1.67
2.33
8.67
-2.0
4.33
1.67
1.0
-1.0
1.67
-3.33
0.0
5.33
7.67
3.67
1.0
1.0
2.0
-2.67
-1.33
-1.33
0.67
-2.33
0.33
0.0
0.67
3.33
-1.33
1.0
-2.0
0.67
1.0
7.0
1.67
-1.0
2.33
2.0
1.67
-1.67
-1.67
-6.0
1.33
2.33
2.67
-0.67
5.0
-1.0
-0.33
-1.0
-8.0
-0.33
0.0
-7.33
-7.67
-4.0
-2.67
-6.67
-1.33
-3.0
1.33
0.0
11.67
18.33
16.33
12.33
-1.33
-1.33
8.0
-1.33
2.0
6.0
1.67
-1.67
-2.33
0.67
-0.67
-1.0
-1.67
-3.0
1.67
-5.67
5.0
-4.33
4.33
4.67
2.67
-1.67
2.33
10.33
-0.33
-7.67
7.67
11.33
18.0
19.0
18.33
5.67
6.67
6.33
11.0
7.33
16.0
10.0
1.0
2.33
17.33
-4.0
13.0
2.67
0.33
13.33
3.33
0.67
4.33
2.67
8.0
2.67
-2.33
2.0
14.67
7.67
20.0
12.67
7.67
12.0
3.0
26.67
13.67
16.33
28.33
22.33
38.67
55.0
108.33
134.0
121.0
47.33
31.33
15.33
-7.0
7.33
10.33
8.33
-1.67
13.67
14.67
9.0
6.0
13.33
15.67
6.67
20.67
2.0
12.33
5.33
-1.0
1.67
9.33
6.33
5.33
15.33
16.0
18.0
24.67
27.0
28.67
17.33
3.67
8.33
12.0
4.0
7.0
2.0
3.33
0.0
18.67
-4.0
4.67
9.67
1.67
0.33
11.0
-8.33
9.67
2.0
-0.33
-7.0
-0.67
-0.33
2.33
-9.0
-13.0
-5.0
6.67
4.33
3.67
1.33
10.33
12.67
0.33
3.0
-2.0
0.0
5.0
3.33
10.0
13.33
2.0
8.0
-1.67
-1.0
-1.67
-2.0
4.67
4.33
-5.33
-8.33
9.33
0.67
9.67
-3.33
-2.0
5.33
-5.33
2.0
11.0
6.67
1.0
-1.0
3.0
0.33
-1.33
-1.67
3.33
-1.33
4.33
-3.0
-3.67
1.33
-6.0