File: EDX Back Ups and Old Files/Spectra copy 3.3.23/Samples/High pH SF 25C 6d/12.25.txt
0.0
-78.67
65.67
-23.33
-5.0
2.67
-0.67
0.0
2.0
1.33
0.0
-0.67
-1.0
-1.33
0.67
0.67
-1.67
-3.0
6.0
2.0
0.0
3.33
0.67
-1.33
8.67
1.67
5.0
-4.33
2.67
-2.33
-1.67
-1.33
1.67
-1.0
0.67
9.33
3.33
0.0
-1.33
-6.33
0.33
3.0
1.33
4.0
-2.0
8.0
-0.67
-1.33
4.0
1.33
-2.67
7.33
3.33
1.0
0.67
-0.33
0.33
5.67
6.0
1.33
1.67
0.0
3.0
-0.33
3.67
7.0
-3.67
3.67
-3.33
-1.0
-2.0
3.0
-1.67
0.67
2.67
-2.33
-0.33
-3.67
1.0
4.67
3.33
-1.33
-2.0
4.0
-1.33
-3.0
4.0
-0.33
0.0
-0.67
-2.0
0.67
3.33
-0.67
6.0
0.33
-1.67
0.67
1.33
4.0
1.0
1.67
-5.0
-2.0
-0.33
5.0
-4.33
-1.67
-3.0
3.33
-1.67
0.67
3.0
-2.67
2.0
-7.33
-2.67
-0.67
2.33
-6.33
1.67
-3.0
-3.33
-1.0
5.0
3.67
-4.67
1.67
5.67
-0.67
2.0
-3.67
-2.0
-1.33
-7.67
-1.0
3.67
-0.67
6.67
-6.33
12.33
10.33
2.33
9.67
3.33
5.67
14.33
16.0
31.0
22.33
15.67
7.67
1.33
5.0
13.33
-2.0
0.0
-1.0
0.33
5.33
2.0
2.0
2.67
-8.67
-2.67
4.33
9.67
3.33
-4.33
-7.0
-7.33
6.67
9.0
-4.33
0.67
4.0
6.67
-2.33
10.0
1.0
0.67
-1.33
0.33
7.33
13.33
27.67
78.0
169.33
143.0
140.0
91.33
37.33
2.33
3.0
-6.67
6.33
6.33
10.33
-1.33
7.67
5.0
17.0
6.33
5.67
0.67
14.67
-1.0
3.33
6.33
-1.0
4.67
1.33
0.33
1.33
0.33
0.0
-1.0
0.67
7.0
5.67
8.33
-6.33
2.33
-2.0
5.0
8.0
6.0
1.33
7.0
21.67
-1.0
-1.33
5.67
-0.33
9.33
-2.0
-4.33
-1.33
1.0
-3.33
-6.0
3.33
1.67
3.33
7.0
-3.0
1.0
6.67
-3.67
0.67
14.33
-8.67
8.67
2.33
-1.0
2.0
7.0
1.0
4.33
4.0
-2.67
-3.0
3.0
-2.67
-12.0
3.33
4.0
3.67
3.33
0.67
-4.33
1.33
-0.33
1.67
-0.33
-1.0
2.33
0.67
6.0
6.0
4.67
4.0
2.0
1.0
3.33
1.67
3.33
1.33
0.67
7.33
-2.0
-0.67
-1.67
1.0