File: EDX Back Ups and Old Files/Spectra copy 3.3.23/Samples/High pH SF 25C 6d/6.5.txt
0.0
6.33
63.67
23.67
5.0
1.67
0.33
0.0
0.0
-0.67
0.0
-0.67
-1.0
-1.33
0.67
0.67
0.33
0.0
4.0
9.0
3.0
-5.67
1.67
6.67
13.67
0.67
1.0
4.67
3.67
8.67
6.33
2.67
4.67
-2.0
4.67
3.33
11.33
2.0
-6.33
-3.33
3.33
2.0
6.33
-2.0
3.0
8.0
2.33
4.67
-2.0
5.33
-3.67
11.33
7.33
9.0
7.67
2.67
1.33
12.67
3.0
6.33
6.67
3.0
1.0
-1.33
-2.33
3.0
3.33
5.67
2.67
2.0
1.0
1.0
-0.67
-3.33
-1.33
0.67
0.67
2.33
-4.0
3.67
0.33
0.67
3.0
-1.0
0.67
8.0
5.0
3.67
1.0
3.33
3.0
2.67
2.33
-0.67
-1.0
-1.67
4.33
-0.33
-7.67
1.0
-1.0
3.67
-2.0
-7.0
-7.33
9.0
-5.33
-1.67
-4.0
0.33
-3.67
2.67
-6.0
-8.67
0.0
11.67
15.33
15.33
1.33
-2.33
2.67
-4.0
-3.33
9.0
0.0
-6.33
-3.67
-3.33
-4.33
-9.67
5.0
-7.67
2.0
5.67
0.33
3.0
-5.33
2.33
0.67
-3.33
-3.67
-2.67
1.33
2.67
-0.67
-0.33
9.33
5.0
7.0
5.33
14.67
12.67
3.33
4.0
4.33
0.0
8.0
8.0
8.33
-0.67
-2.0
14.0
9.67
-0.67
5.33
11.33
9.67
7.33
6.67
15.0
-7.33
0.67
15.0
11.67
9.67
13.0
6.67
9.67
13.0
9.0
2.67
9.67
14.33
26.33
31.33
31.67
41.0
67.33
114.0
95.0
31.33
9.33
15.33
2.0
9.33
7.33
10.33
14.33
11.67
4.67
2.0
6.0
11.33
13.67
1.67
15.67
15.0
11.33
8.33
12.0
0.67
11.33
7.33
11.33
11.33
15.0
18.0
19.67
15.0
28.67
9.33
-1.33
1.33
0.0
18.0
10.0
1.0
6.33
8.0
12.67
5.0
-2.33
3.67
3.67
5.33
8.0
-1.33
0.67
-2.0
9.67
-7.0
2.33
-1.33
3.33
8.0
12.0
8.0
6.67
7.33
12.67
12.33
3.33
16.67
1.33
10.0
26.0
3.0
-6.0
-6.67
2.0
7.33
9.0
11.0
9.33
-4.0
1.33
5.0
-2.33
10.33
-9.33
1.67
9.33
1.67
9.67
2.67
0.0
6.33
0.67
0.0
1.0
5.67
-6.0
-5.0
4.0
6.33
3.67
2.33
-0.67
1.67
6.33
6.0
0.33
4.33
1.0