File: EDX Back Ups and Old Files/Spectra copy 3.3.23/Samples/High pH SF 25C 6d/6.75.txt
0.0
39.33
65.67
-24.33
-5.0
-0.33
-0.67
0.0
0.0
0.33
0.0
-0.67
1.0
1.67
-0.33
1.67
0.33
1.0
-4.0
3.0
-1.0
2.33
3.67
1.67
5.67
7.67
1.0
0.67
1.67
2.67
6.33
4.67
-3.33
-2.0
13.67
4.33
7.33
5.0
3.67
-3.33
0.33
7.0
6.33
5.0
1.0
1.0
2.33
0.67
-1.0
6.33
0.33
1.33
6.33
11.0
0.67
6.67
2.33
6.67
-2.0
6.33
-4.33
4.0
4.0
0.67
-0.33
6.0
-3.67
0.67
3.67
2.0
0.0
0.0
3.33
0.67
5.67
-2.33
2.67
5.33
0.0
2.67
-1.67
1.67
1.0
2.0
2.67
2.0
1.0
4.67
2.0
2.33
-1.0
0.67
0.33
2.33
1.0
2.33
2.33
3.67
-5.67
1.0
-2.0
1.67
-1.0
-5.0
-0.33
4.0
-1.33
0.33
2.0
2.33
-6.67
-3.33
-1.0
-1.67
-5.0
15.67
21.33
16.33
3.33
-1.33
0.67
-5.0
-1.33
8.0
2.0
-2.33
0.33
-6.33
-2.33
-5.67
-1.0
-1.67
-9.0
-3.33
-3.67
1.0
1.67
-2.67
5.67
2.67
1.33
1.33
0.33
-0.33
0.33
-2.33
11.33
7.0
19.0
15.33
-0.33
5.67
0.33
2.0
8.33
10.0
9.0
14.0
-2.67
8.33
0.0
5.0
-0.33
-2.67
10.33
7.33
3.67
9.33
1.67
7.0
5.67
4.67
5.0
17.67
8.67
8.0
6.67
8.67
12.0
6.0
11.67
9.67
6.33
15.33
28.33
34.67
27.0
90.33
86.0
93.0
41.33
16.33
10.33
3.0
17.33
11.33
7.33
21.33
5.67
9.67
6.0
10.0
-0.67
8.67
1.67
13.67
1.0
6.33
4.33
16.0
9.67
12.33
4.33
1.33
6.33
13.0
23.0
16.67
23.0
34.67
6.33
-7.33
2.33
8.0
13.0
15.0
2.0
13.33
11.0
28.67
10.0
5.67
2.67
2.67
-10.67
5.0
-5.33
7.67
17.0
3.67
3.0
3.33
-5.33
1.33
8.0
2.0
4.0
13.67
10.33
4.67
6.33
-5.67
10.67
-3.67
4.0
-4.0
6.0
-1.0
2.33
5.0
11.33
6.0
10.0
2.33
3.0
7.33
1.0
5.67
7.33
-1.33
5.67
1.33
6.67
2.67
-0.33
0.0
3.33
-3.33
4.0
6.0
4.67
2.0
-1.0
8.0
3.33
0.67
3.33
10.33
4.67
7.33
4.0
0.33
-2.67
-1.0