File: EDX Back Ups and Old Files/Spectra copy 3.3.23/Samples/High pH SF 25C 6d/8.25.txt
0.0
53.33
16.67
-20.33
-5.0
2.67
1.33
0.0
1.0
-0.67
0.0
-0.67
0.0
-0.33
0.67
0.67
-0.67
0.0
5.0
0.0
0.0
-3.67
4.67
2.67
2.67
6.67
1.0
1.67
6.67
3.67
6.33
-2.33
3.67
3.0
3.67
3.33
7.33
-1.0
-2.33
0.67
-0.67
1.0
4.33
6.0
-1.0
1.0
0.33
6.67
1.0
2.33
-2.67
3.33
8.33
3.0
1.67
-0.33
-2.67
1.67
5.0
5.33
0.67
4.0
-2.0
-0.33
1.67
1.0
1.33
4.67
3.67
3.0
-2.0
0.0
2.33
1.67
0.67
-3.33
3.67
-3.67
1.0
3.67
1.33
1.67
3.0
0.0
1.67
5.0
4.0
2.67
4.0
2.33
-1.0
-2.33
2.33
-3.67
-3.0
-4.67
-2.67
2.67
3.33
1.0
2.0
-1.33
2.0
-5.0
-1.33
3.0
-6.33
-5.67
0.0
-3.67
-7.67
-2.33
-4.0
-1.67
8.0
15.67
28.33
8.33
2.33
0.67
6.67
3.0
-7.33
2.0
1.0
1.67
1.33
0.67
2.67
-9.67
4.0
-4.67
2.0
0.67
-2.67
-1.0
-0.33
-0.67
0.67
3.67
-1.67
8.33
3.33
2.67
1.33
-1.33
9.33
7.0
11.0
20.33
12.67
6.67
1.33
10.0
-0.67
-1.0
9.0
6.0
4.33
1.33
-3.0
13.0
4.67
0.33
2.33
2.33
0.67
13.33
-6.33
5.0
9.67
-7.33
10.0
4.67
11.67
7.0
8.67
9.67
22.0
5.0
7.67
11.67
18.33
22.33
16.33
23.67
49.0
74.33
102.0
84.0
46.33
8.33
4.33
1.0
12.33
0.33
5.33
16.33
9.67
-2.33
-2.0
14.0
15.33
3.67
5.67
14.67
17.0
4.33
10.33
11.0
19.67
14.33
7.33
9.33
5.33
18.0
30.0
24.67
20.0
19.67
11.33
-14.33
14.33
20.0
17.0
13.0
11.0
-2.67
-1.0
17.67
0.0
0.67
3.67
-2.33
4.33
9.0
7.67
-0.33
6.0
-5.33
7.0
4.33
-1.33
-1.67
1.0
-1.0
2.0
2.67
10.33
10.67
15.33
-2.67
8.67
1.33
4.0
5.0
0.0
-2.0
9.33
14.0
-0.67
-1.0
10.0
2.33
-5.0
3.33
2.0
7.67
13.33
3.67
1.67
3.33
10.67
-0.33
-3.33
-2.0
-2.67
1.67
3.0
4.0
5.67
6.0
-1.0
6.0
1.33
-0.33
6.33
5.33
3.67
2.33
-1.0
-1.67
-0.67
-2.0