File: EDX Back Ups and Old Files/Spectra copy 3.3.23/Samples/High pH SF 25C 6d/8.75.txt
0.0
-90.67
15.67
48.67
-4.0
1.67
1.33
1.0
0.0
-0.67
1.0
-0.67
-1.0
-1.33
-1.33
-1.33
0.33
0.0
6.0
4.0
3.0
1.33
1.67
13.67
0.67
6.67
5.0
-0.33
-1.33
5.67
8.33
5.67
4.67
-1.0
7.67
2.33
1.33
5.0
-3.33
-2.33
4.33
0.0
6.33
1.0
5.0
2.0
0.33
1.67
2.0
-1.67
6.33
7.33
-1.67
8.0
2.67
0.67
-5.67
2.67
-1.0
0.33
3.67
2.0
-1.0
-1.33
-3.33
1.0
1.33
2.67
6.67
4.0
-1.0
-2.0
-0.67
-3.33
2.67
-4.33
-2.33
-2.67
1.0
1.67
3.33
-2.33
1.0
-2.0
-0.33
2.0
3.0
-0.33
-3.0
2.33
5.0
-3.33
-4.67
3.33
4.0
-5.67
-1.67
0.67
-3.67
-3.0
-1.0
3.67
6.0
-5.0
-0.33
4.0
-3.33
1.33
-2.0
-2.67
-2.67
-3.33
-5.0
-1.67
2.0
17.67
34.33
12.33
6.33
-1.33
-3.33
4.0
2.67
-4.0
-1.0
1.67
-3.67
-9.33
-2.33
-4.67
1.0
0.33
2.0
-0.33
-7.67
-2.0
-6.33
-3.67
-7.33
-3.33
6.33
1.33
-5.67
1.67
-6.67
-4.33
15.33
10.0
18.0
11.33
13.67
10.67
5.33
5.0
9.33
-4.0
13.0
6.0
11.33
-2.67
-3.0
8.0
1.67
-4.67
15.33
3.33
-2.33
13.33
-2.33
3.0
-3.33
9.67
-3.0
10.67
14.67
6.0
9.67
7.67
18.0
1.0
13.67
8.67
16.33
11.33
19.33
28.67
53.0
105.33
92.0
94.0
37.33
19.33
10.33
6.0
-0.67
11.33
13.33
14.33
1.67
15.67
7.0
8.0
4.33
8.67
14.67
6.67
-1.0
9.33
4.33
5.0
-3.33
10.33
4.33
6.33
7.33
6.0
11.0
27.67
32.0
15.67
7.33
-11.33
6.33
2.0
9.0
23.0
9.0
6.33
9.0
12.67
2.0
5.67
3.67
-8.33
-0.67
18.0
8.67
-0.33
17.0
8.67
-5.0
1.33
-2.33
1.33
-2.0
0.0
-4.0
3.67
11.33
11.67
6.33
-6.67
0.67
8.33
4.0
-3.0
5.0
7.0
2.33
4.0
7.33
4.0
7.0
6.33
-1.0
-0.67
5.0
6.67
5.33
-4.33
0.67
1.33
5.67
4.67
4.67
-1.0
3.33
8.67
3.0
6.0
2.67
0.0
2.0
0.0
1.33
3.67
1.33
5.33
2.67
0.33
2.0
1.33
0.33
-2.0