File: EDX Back Ups and Old Files/Spectra copy 3.3.23/Samples/High pH SF 25C 6d/9.25.txt
0.0
52.33
46.67
-6.33
3.0
-0.33
0.33
1.0
1.0
1.33
1.0
0.33
-1.0
-1.33
-0.33
0.67
-0.67
0.0
0.0
-1.0
0.0
0.33
0.67
4.67
5.67
9.67
4.0
9.67
1.67
8.67
1.33
0.67
0.67
-2.0
0.67
3.33
0.33
9.0
0.67
-3.33
9.33
1.0
1.33
5.0
-2.0
4.0
-2.67
4.67
0.0
-5.67
3.33
7.33
-3.67
2.0
0.67
6.67
9.33
1.67
6.0
-0.67
-0.33
3.0
0.0
1.67
1.67
4.0
-2.67
2.67
2.67
1.0
4.0
0.0
2.33
-2.33
2.67
-0.33
2.67
0.33
-1.0
-0.33
1.33
-0.33
0.0
0.0
-0.33
0.0
3.0
0.67
1.0
1.33
1.0
1.67
-0.67
-0.67
-1.0
1.33
2.33
0.67
-1.67
-3.0
-4.0
3.67
-1.0
-6.0
-2.33
0.0
-7.33
0.33
-2.0
-1.67
-3.67
-2.33
-2.0
-0.67
12.0
16.67
25.33
5.33
4.33
-3.33
-6.33
-1.0
-4.33
7.0
-2.0
-0.33
-2.67
0.67
-2.33
-3.67
-7.0
0.33
1.0
6.67
-5.67
5.0
-1.33
-0.67
5.67
6.67
3.33
20.33
4.33
3.67
-5.67
3.67
8.33
12.0
26.0
26.33
9.67
-0.33
5.33
6.0
5.33
-6.0
2.0
0.0
-0.67
9.33
5.0
5.0
-5.33
-1.67
13.33
9.33
-0.33
14.33
5.67
0.0
6.67
1.67
6.0
11.67
5.67
8.0
11.67
3.67
16.0
7.0
-2.33
-0.33
15.33
14.33
31.33
36.67
34.0
83.33
109.0
94.0
33.33
12.33
0.33
0.0
3.33
14.33
0.33
8.33
13.67
-0.33
14.0
5.0
0.33
7.67
4.67
11.67
5.0
10.33
3.33
2.0
5.67
4.33
16.33
4.33
11.33
18.0
14.0
21.67
32.0
32.67
6.33
4.67
12.33
11.0
6.0
8.0
0.0
9.33
4.0
12.67
7.0
7.67
-8.33
8.67
13.33
0.0
-4.33
-2.33
-4.0
-0.33
-2.0
3.33
-6.33
-1.67
5.0
8.0
2.0
3.67
11.33
5.67
11.33
7.33
2.67
5.33
9.0
5.0
9.0
9.0
-1.67
5.0
5.33
1.0
10.0
-0.67
6.0
2.33
1.0
2.67
5.33
0.67
-0.33
5.33
-5.33
-3.33
1.67
0.0
-6.67
-4.33
-1.0
-1.0
1.67
-6.0
-5.0
4.0
-1.67
-0.33
-3.67
3.33
1.67
3.33
-1.0
1.33
2.33
-3.0