File: EDX Back Ups and Old Files/Spectra copy 3.3.23/Samples/High pH SF 25C 6d/9.75.txt
0.0
29.33
44.67
12.67
-6.0
3.67
-0.67
1.0
0.0
0.33
0.0
-0.67
-1.0
-1.33
-1.33
1.67
-0.67
-1.0
2.0
0.0
-1.0
-5.67
2.67
0.67
7.67
9.67
-3.0
2.67
9.67
7.67
7.33
8.67
-2.33
-1.0
1.67
-2.67
3.33
-2.0
1.67
1.67
-0.67
2.0
5.33
-1.0
-2.0
1.0
-1.67
0.67
6.0
0.33
-6.67
3.33
5.33
5.0
1.67
-5.33
3.33
5.67
1.0
12.33
2.67
3.0
0.0
-0.33
1.67
-3.0
1.33
4.67
-1.33
2.0
0.0
2.0
1.33
3.67
1.67
-2.33
-2.33
-2.67
0.0
-0.33
4.33
-1.33
0.0
-2.0
0.67
0.0
1.0
3.67
4.0
-0.67
-2.0
-0.33
0.33
-2.67
-1.0
0.33
0.33
-0.33
-7.67
-5.0
-3.0
3.67
2.0
-1.0
-2.33
-2.0
-8.33
-6.67
4.0
-0.67
-8.67
-0.33
-8.0
-0.67
5.0
20.67
26.33
13.33
1.33
-4.33
0.67
-1.0
-0.33
5.0
8.0
-4.33
-1.67
-7.33
0.67
-5.67
-1.0
0.33
-2.0
2.67
-4.67
-3.0
1.67
-1.67
5.67
2.67
-6.67
4.33
-0.67
0.67
-8.67
2.67
18.33
15.0
12.0
27.33
12.67
1.67
6.33
4.0
3.33
10.0
-1.0
7.0
9.33
2.33
2.0
6.0
6.67
-3.67
-3.67
7.33
3.67
3.33
-9.33
6.0
3.67
7.67
-1.0
1.67
15.67
1.0
-2.33
6.67
19.0
3.0
8.67
5.67
12.33
17.33
30.33
33.67
67.0
104.33
115.0
93.0
44.33
14.33
8.33
13.0
3.33
21.33
20.33
22.33
5.67
-0.33
6.0
10.0
10.33
4.67
8.67
16.67
10.0
10.33
8.33
12.0
11.67
4.33
-0.67
15.33
5.33
15.0
30.0
18.67
33.0
9.67
5.33
-1.33
7.33
8.0
12.0
15.0
0.0
9.33
13.0
16.67
-5.0
-0.33
-4.33
8.67
-4.67
16.0
-2.33
2.67
9.0
-3.33
-7.0
8.33
-5.33
9.33
1.0
-6.0
-7.0
-6.33
6.33
4.67
13.33
0.33
8.67
0.33
1.0
4.0
10.0
4.0
4.33
5.0
2.33
-1.0
5.0
2.33
-1.0
5.33
2.0
13.67
-0.67
-6.33
4.67
6.33
14.67
13.67
0.67
4.0
4.33
-2.33
7.0
1.0
2.67
-3.0
-4.0
7.0
-2.67
-0.33
4.33
5.33
1.67
0.33
0.0
4.33
0.33
1.0