File: EDX Back Ups and Old Files/Spectra copy 3.3.23/Samples/High pH SF 25C 6d/background.txt
0.0
1877.67
1062.33
248.33
39.0
4.33
0.67
0.0
0.0
0.67
0.0
0.67
1.0
1.33
1.33
1.33
2.67
3.0
4.0
5.0
9.0
9.67
8.33
9.33
6.33
7.33
10.0
10.33
9.33
8.33
9.67
9.33
10.33
13.0
9.33
7.67
7.67
11.0
11.33
11.33
8.67
8.0
6.67
9.0
8.0
9.0
10.67
8.33
8.0
9.67
11.67
6.67
7.67
6.0
7.33
7.33
7.67
5.33
7.0
5.67
7.33
6.0
7.0
7.33
8.33
5.0
7.67
3.33
5.33
6.0
6.0
5.0
6.67
5.33
4.33
6.33
5.33
6.67
7.0
4.33
4.67
6.33
5.0
6.0
6.33
4.0
3.0
3.33
5.0
3.67
5.0
5.33
5.67
6.67
6.0
5.67
5.67
5.33
9.67
6.0
7.0
5.33
10.0
12.0
8.33
6.0
12.33
11.67
10.0
9.67
12.67
12.33
12.0
12.67
13.0
13.33
13.67
14.67
13.67
15.33
12.33
13.0
13.33
9.0
11.0
14.33
13.67
16.33
12.33
18.67
15.0
16.67
16.0
18.33
21.67
14.0
15.33
16.67
14.33
14.33
16.67
11.67
12.67
14.33
17.67
16.33
11.67
17.0
16.0
13.67
13.33
16.33
16.67
13.0
12.67
16.0
13.0
14.0
12.67
12.67
16.0
12.0
14.33
23.67
26.67
16.67
13.33
15.67
32.33
45.0
24.33
17.33
15.0
11.33
12.33
14.0
13.33
12.33
10.0
17.0
17.33
17.33
15.67
15.67
13.67
14.33
20.0
20.67
18.0
19.0
29.67
32.67
27.67
27.0
22.67
20.67
25.67
22.67
25.33
22.33
24.0
19.0
22.67
23.33
24.33
23.33
24.0
22.67
28.67
28.0
26.33
22.67
27.67
29.67
27.67
29.0
35.0
30.33
29.0
27.33
33.67
38.33
27.67
31.0
27.0
27.0
28.0
27.67
32.0
21.33
33.0
30.33
29.33
26.33
29.67
21.0
29.33
22.33
23.0
25.33
27.0
24.67
26.33
21.67
23.0
21.0
24.0
20.33
18.67
21.33
17.67
22.67
14.33
19.67
16.0
16.0
14.0
17.0
15.67
12.0
16.67
15.0
12.0
12.67
16.0
11.67
11.0
12.33
9.67
17.33
14.33
10.67
12.33
11.33
11.33
13.0
11.67
10.33
10.0
7.0
7.33
12.0
12.0
6.0
9.67
10.33
8.67
7.67
7.33
5.67
8.0
8.67
7.67
9.0