File: EDX Back Ups and Old Files/Spectra copy 3.3.23/Samples/High pH SF 25C 9d/11.0.txt
0.0
63.67
-8.0
-23.33
2.0
-6.0
-1.0
-0.33
-0.33
0.33
1.67
-0.33
-0.33
-0.33
0.67
0.0
-2.0
-2.33
2.33
4.33
5.0
-0.33
-4.0
-1.33
0.67
1.33
7.67
0.67
-4.0
1.67
6.33
7.0
4.33
11.67
1.67
9.67
-2.67
1.0
-0.33
0.67
2.33
-1.33
4.33
0.67
1.33
-2.0
1.33
4.67
3.33
-1.67
3.0
5.33
1.67
1.0
-1.67
3.33
2.33
-4.67
-0.67
3.0
-1.67
-7.0
5.33
4.0
2.67
3.33
1.33
-3.33
2.67
-0.33
-2.67
3.67
5.33
6.33
2.33
-2.0
-5.0
0.67
1.0
3.0
2.33
1.33
6.0
5.0
-5.0
-0.33
-1.67
3.67
-4.33
-1.33
2.67
-0.67
-4.33
1.0
3.0
-2.33
-3.33
-0.33
2.0
0.67
1.0
-2.0
-1.0
-2.33
-4.0
1.33
-1.0
1.33
-2.33
6.0
1.67
-2.33
-3.67
1.67
4.33
9.0
0.33
14.67
1.67
4.67
3.67
11.33
11.33
3.33
4.67
1.33
6.33
8.33
3.33
0.33
0.0
-8.0
1.0
2.0
4.0
9.0
4.0
2.33
0.33
6.33
3.0
-0.33
-0.33
9.67
-3.67
5.33
10.0
17.33
28.33
17.0
24.0
12.33
8.33
12.33
8.33
9.67
9.67
14.67
9.33
12.0
5.67
7.33
18.33
7.0
4.0
15.67
14.67
10.33
1.0
16.33
3.67
10.33
7.33
10.67
12.0
11.67
7.0
7.67
11.67
6.0
13.67
2.67
10.67
21.0
12.33
37.67
119.33
181.0
221.0
127.0
69.33
27.67
6.0
1.67
26.0
4.67
7.67
17.33
1.33
11.33
6.0
9.0
13.0
18.67
5.0
9.67
14.33
10.33
3.33
-1.67
-3.0
4.0
6.0
7.67
13.67
-1.33
5.33
11.33
22.33
2.33
8.67
13.67
-4.33
-1.33
18.33
-5.67
24.67
0.0
6.67
17.67
18.0
5.0
4.67
-2.33
14.67
-4.0
0.33
13.33
-6.33
-6.33
3.67
-5.33
5.67
5.0
3.33
-2.33
9.0
9.33
0.67
4.0
0.67
12.33
0.33
3.0
10.33
5.0
3.0
4.0
9.33
2.0
2.67
2.33
-5.33
5.67
8.33
1.0
1.67
3.0
5.33
4.33
2.67
5.0
8.67
-1.33
7.0
-3.67
0.0
1.33
3.0
1.0
3.67
11.0
6.0
-4.33
2.0
1.33
-2.67
-4.67
0.0
2.67
0.33
-3.33
7.67
5.67