File: EDX Back Ups and Old Files/Spectra copy 3.3.23/Samples/High pH SF 25C 9d/11.25.txt
0.0
48.67
-39.0
-41.33
3.0
-4.0
0.0
-0.33
0.67
-0.67
-0.33
-0.33
0.67
-1.33
1.67
3.0
1.0
-1.33
-2.67
2.33
1.0
2.67
2.0
-0.33
-0.33
4.33
3.67
4.67
6.0
5.67
5.33
3.0
-1.67
9.67
1.67
8.67
-1.67
5.0
-2.33
-0.33
5.33
-0.33
8.33
7.67
6.33
0.0
-2.67
4.67
4.33
-3.67
7.0
3.33
4.67
1.0
-0.67
3.33
-2.67
2.33
-0.67
9.0
-2.67
1.0
3.33
2.0
-3.33
1.33
2.33
0.67
1.67
2.67
-2.67
1.67
5.33
-2.67
-1.67
0.0
-1.0
1.67
0.0
1.0
2.33
-0.67
2.0
3.0
-1.0
-3.33
3.33
1.67
-1.33
-1.33
4.67
0.33
1.67
2.0
4.0
0.67
-2.33
-1.33
2.0
-1.33
-1.0
1.0
-2.0
2.67
-8.0
-4.67
-2.0
3.33
-2.33
6.0
3.67
-7.33
-2.67
2.67
0.33
6.0
11.33
7.67
16.67
1.67
2.67
-2.67
10.33
-1.67
2.67
5.33
6.33
8.33
4.33
1.33
3.0
1.0
0.0
13.0
-5.0
10.0
4.0
1.33
3.33
9.33
11.0
3.67
-1.33
3.67
-0.67
-0.67
11.0
24.33
30.33
24.0
16.0
1.33
11.33
7.33
8.33
3.67
0.67
14.67
6.33
6.0
-2.33
7.33
7.33
10.0
15.0
19.67
2.67
0.33
15.0
9.33
2.67
9.33
3.33
10.67
7.0
15.67
8.0
4.67
4.67
19.0
9.67
9.67
10.67
22.0
8.33
50.67
120.33
211.0
258.0
186.0
88.33
14.67
8.0
16.67
18.0
3.67
7.67
16.33
15.33
11.33
9.0
-1.0
16.0
10.67
9.0
13.67
9.33
0.33
-3.67
17.33
4.0
18.0
3.0
7.67
14.67
2.67
16.33
4.33
1.33
0.33
5.67
5.67
4.67
4.67
-5.67
7.33
8.67
1.0
18.67
4.67
14.0
2.0
3.67
11.67
-4.33
8.0
7.33
15.33
1.67
-3.33
4.67
3.67
7.67
0.0
-2.67
11.67
2.0
14.33
3.67
6.0
8.67
1.33
7.33
7.0
7.33
2.0
1.0
-2.0
7.33
-11.0
-1.33
6.33
-2.33
11.67
2.33
4.0
2.67
1.0
-1.67
1.33
1.67
-7.0
4.67
-0.33
0.0
8.33
-4.0
1.33
-3.0
-3.0
0.67
5.0
6.0
-0.33
-1.0
-1.67
-0.67
-0.67
-1.0
-2.33
-0.67
-2.33
3.67
0.67