File: EDX Back Ups and Old Files/Spectra copy 3.3.23/Samples/High pH SF 25C 9d/12.0.txt
0.0
-64.33
-8.0
3.67
6.0
-6.0
1.0
-0.33
-0.33
0.33
-0.33
-0.33
-0.33
-1.33
-0.33
0.0
-2.0
-2.33
1.33
-1.67
1.0
-1.33
-6.0
-0.33
2.67
6.33
2.67
5.67
-1.0
1.67
-0.67
7.0
-0.67
4.67
-0.33
-1.33
-2.67
4.0
0.67
-2.33
3.33
0.67
-1.67
-1.33
1.33
0.0
2.33
-1.33
-3.67
-0.67
1.0
5.33
-2.33
-6.0
1.33
-1.67
-0.67
-2.67
-2.67
0.0
-3.67
-3.0
5.33
1.0
1.67
0.33
1.33
-4.33
-0.33
1.67
-2.67
-2.33
4.33
8.33
-1.67
2.0
0.0
2.67
-4.0
3.0
1.33
-1.67
2.0
-1.0
-1.0
-0.33
2.33
1.67
1.67
-1.33
-2.33
1.33
-5.33
-2.0
3.0
1.67
-1.33
-3.33
2.0
1.67
-3.0
7.0
1.0
3.67
-4.0
2.33
-1.0
-4.67
-0.33
4.0
-0.33
-0.33
-4.67
1.67
-0.67
-2.0
-0.67
-1.33
7.67
0.67
6.67
-0.67
16.33
-1.67
2.67
-2.67
12.33
0.33
4.33
-3.67
-1.0
8.0
6.0
7.0
2.0
12.0
2.0
1.33
0.33
6.33
7.0
-1.33
4.67
5.67
9.33
1.33
4.0
31.33
25.33
28.0
21.0
17.33
14.33
5.33
3.33
6.67
7.67
4.67
10.33
8.0
5.67
9.33
2.33
11.0
21.0
15.67
11.67
9.33
14.0
20.33
6.67
9.33
9.33
4.67
20.0
9.67
-1.0
11.67
4.67
5.0
13.67
2.67
7.67
19.0
26.33
39.67
144.33
282.0
346.0
283.0
131.33
36.67
6.0
21.67
15.0
13.67
4.67
10.33
5.33
9.33
6.0
7.0
17.0
-0.33
8.0
10.67
6.33
4.33
10.33
-4.67
-14.0
12.0
-8.0
7.67
-1.33
3.67
12.33
6.33
1.33
12.33
16.67
6.67
-8.33
-3.33
10.33
7.33
19.67
7.0
36.67
-0.33
18.0
19.0
14.67
3.67
9.67
8.0
-6.67
15.33
9.67
8.67
7.67
6.67
2.67
9.0
7.33
-4.33
-5.0
8.33
7.67
15.0
5.67
0.33
12.33
-2.0
2.33
1.0
0.0
4.0
14.33
-2.0
9.67
9.33
0.67
8.67
3.33
3.0
3.67
-1.0
-3.67
7.33
2.67
-2.0
5.67
9.67
7.0
1.33
0.0
-0.67
5.0
1.0
-1.33
8.0
5.0
-3.33
1.0
3.33
-1.67
1.33
0.0
-1.33
-3.67
-6.33
1.67
5.67