File: EDX Back Ups and Old Files/Spectra copy 3.3.23/Samples/High pH SF 25C 9d/12.25.txt
0.0
56.67
62.0
-16.33
5.0
-7.0
0.0
-0.33
-0.33
-0.67
0.67
0.67
1.67
-0.33
1.67
0.0
-1.0
2.67
-2.67
-1.67
-4.0
1.67
-4.0
10.67
1.67
4.33
10.67
1.67
-3.0
2.67
2.33
2.0
5.33
4.67
-1.33
1.67
3.33
-2.0
-2.33
-0.33
2.33
-1.33
1.33
4.67
4.33
-7.0
-1.67
-3.33
3.33
1.33
0.0
-0.67
3.67
5.0
-1.67
0.33
0.33
2.33
-0.67
0.0
-0.67
-1.0
-2.67
3.0
-5.33
1.33
0.33
-7.33
4.67
4.67
-1.67
-1.33
1.33
1.33
-1.67
2.0
-3.0
7.67
-1.0
5.0
-0.67
2.33
2.0
3.0
-1.0
-4.33
4.33
-1.33
1.67
1.67
-1.33
-0.67
-5.33
-1.0
1.0
-0.33
-3.33
-1.33
-2.0
-2.33
-2.0
1.0
-2.0
-1.33
-5.0
0.33
-2.0
-2.67
-1.33
-1.0
-2.33
-1.33
2.33
-1.33
4.33
0.0
3.33
1.67
0.67
3.67
-0.33
3.33
2.33
-0.67
-0.33
1.33
6.33
0.33
-4.67
-0.67
-2.0
-5.0
2.0
2.0
0.0
0.0
4.0
1.33
-2.67
2.33
0.0
-7.33
-4.33
9.67
-4.67
-2.67
7.0
17.33
17.33
13.0
-2.0
0.33
-0.67
-4.67
-1.67
-3.33
7.67
7.67
-0.67
1.0
0.67
4.33
4.33
0.0
4.0
17.67
1.67
4.33
8.0
6.33
4.67
10.33
10.33
2.67
6.0
14.67
-4.0
8.67
-0.33
-1.0
10.67
8.67
-0.33
4.0
1.33
28.67
83.33
168.0
180.0
192.0
81.33
29.67
5.0
6.67
9.0
4.67
-2.33
12.33
5.33
-3.67
2.0
-2.0
5.0
-1.33
-1.0
5.67
-0.67
-3.67
-3.67
7.33
-6.0
-6.0
-1.0
1.67
2.67
3.67
15.33
6.33
7.33
-8.67
12.67
1.67
-5.33
0.67
4.33
4.33
4.67
-3.0
19.67
-4.33
14.0
4.0
-0.33
8.67
-2.33
8.0
18.33
7.33
-0.33
5.67
5.67
5.67
6.67
0.0
-6.67
-4.33
5.0
3.33
2.67
0.0
-1.33
6.33
6.33
-1.0
-0.67
2.0
3.0
7.0
8.33
-4.0
8.67
0.33
1.67
-2.33
0.33
5.0
-0.33
-3.0
1.33
-3.67
8.67
4.0
0.67
-1.33
6.0
-1.67
3.0
2.33
1.0
-6.0
-4.33
2.0
6.0
2.67
4.0
3.33
4.33
0.33
-1.0
1.67
1.33
-2.33
-4.33
2.67