File: EDX Back Ups and Old Files/Spectra copy 3.3.23/Samples/High pH SF 25C 9d/6.75.txt
0.0
66.67
24.0
-15.33
-4.0
0.0
-1.0
-0.33
1.67
0.33
0.67
0.67
-0.33
-1.33
2.67
2.0
-2.0
-0.33
-1.67
-1.67
-3.0
4.67
-2.0
4.67
-0.33
4.33
3.67
6.67
6.0
4.67
1.33
5.0
3.33
1.67
3.67
4.67
-0.67
4.0
-3.33
-0.33
6.33
-3.33
-1.67
-2.33
7.33
-3.0
11.33
-1.33
-1.67
-2.67
-2.0
3.33
0.67
-1.0
2.33
3.33
3.33
0.33
2.33
2.0
0.33
0.0
1.33
3.0
1.67
8.33
5.33
1.67
1.67
-0.33
-3.67
-1.33
7.33
0.33
-2.67
2.0
-4.0
0.67
1.0
6.0
0.33
5.33
0.0
4.0
-5.0
-0.33
2.33
6.67
-3.33
-3.33
3.67
2.33
-4.33
5.0
0.0
0.67
-2.33
-4.33
-1.0
-3.33
4.0
2.0
-5.0
1.67
-1.0
-1.67
2.0
-2.67
2.67
2.0
1.67
-4.33
4.33
4.67
9.33
16.0
18.33
14.67
7.67
2.67
8.67
12.33
8.33
9.33
3.67
-1.67
2.33
-2.67
2.33
-2.67
12.0
2.0
-1.0
3.0
-1.0
7.0
6.0
-0.67
0.33
0.33
5.0
-5.33
-7.33
-0.33
-2.67
-5.67
11.0
9.33
26.33
6.0
3.0
12.33
-1.67
11.33
8.33
7.67
5.67
10.67
1.33
7.0
3.67
7.33
8.33
22.0
9.0
26.67
14.67
6.33
16.0
6.33
8.67
3.33
11.33
10.67
7.0
-0.33
6.0
7.67
13.67
14.0
12.67
5.67
8.67
21.0
19.33
29.67
48.33
74.0
50.0
53.0
37.33
18.67
-2.0
13.67
1.0
8.67
8.67
28.33
9.33
9.33
6.0
6.0
18.0
8.67
16.0
4.67
1.33
10.33
8.33
1.33
4.0
-1.0
15.0
8.67
18.67
5.67
14.33
25.33
29.33
20.33
16.67
6.67
-0.33
10.67
7.33
-2.67
14.67
1.0
10.67
9.67
20.0
12.0
2.67
18.67
15.67
-2.0
1.33
16.33
-1.33
7.67
8.67
5.67
9.67
2.0
8.33
-0.33
-1.0
7.33
-2.33
1.0
-1.33
8.33
2.33
10.0
7.33
11.0
3.0
6.0
13.33
-1.0
7.67
8.33
7.67
-2.33
6.33
10.0
1.67
2.0
-1.67
-3.67
12.67
6.0
3.67
-1.33
13.0
0.33
4.0
2.33
-1.0
3.0
-2.33
1.0
8.0
1.67
5.0
6.33
4.33
-3.67
7.0
-2.33
2.33
-0.33
7.67
3.67