File: EDX Back Ups and Old Files/Spectra copy 3.3.23/Samples/High pH SF 25C 9d/7.0.txt
0.0
13.67
21.0
33.67
-4.0
0.0
1.0
-0.33
-0.33
-0.67
-0.33
0.67
0.67
-1.33
-0.33
2.0
0.0
-1.33
-0.67
2.33
4.0
1.67
-4.0
5.67
-3.33
7.33
4.67
-0.33
-4.0
4.67
2.33
2.0
0.33
8.67
2.67
5.67
5.33
6.0
-2.33
1.67
2.33
6.67
8.33
-2.33
1.33
-5.0
4.33
1.67
1.33
9.33
8.0
5.33
3.67
2.0
9.33
-1.67
1.33
8.33
1.33
4.0
9.33
-7.0
11.33
-1.0
-1.33
7.33
4.33
2.67
-3.33
-0.33
-1.67
0.67
5.33
-1.67
-0.67
1.0
1.0
5.67
1.0
5.0
1.33
6.33
-2.0
2.0
1.0
2.67
1.33
3.67
-4.33
-1.33
1.67
0.33
-2.33
-3.0
4.0
-0.33
0.67
-4.33
3.0
-1.33
-1.0
7.0
-3.0
-0.33
-5.0
-1.67
-1.0
1.33
-3.33
3.0
1.67
2.67
-3.67
2.67
2.33
17.0
23.33
18.67
8.67
3.67
1.67
3.33
8.33
3.33
3.67
3.33
3.33
1.33
6.33
6.33
0.0
3.0
9.0
10.0
1.0
4.0
1.0
1.33
-0.67
12.33
7.0
-8.33
1.67
2.67
2.33
-5.67
6.0
13.33
16.33
24.0
13.0
20.33
3.33
4.33
6.33
4.67
16.67
11.67
6.33
2.0
5.67
9.33
8.33
21.0
12.0
14.67
9.67
20.33
16.0
13.33
8.67
13.33
7.33
10.67
5.0
4.67
12.0
6.67
7.67
8.0
11.67
6.67
12.67
16.0
26.33
27.67
35.33
58.0
66.0
57.0
27.33
10.67
12.0
11.67
-1.0
27.67
10.67
9.33
12.33
12.33
9.0
9.0
14.0
11.67
12.0
8.67
6.33
-0.67
5.33
19.33
-3.0
8.0
7.0
6.67
8.67
-0.33
33.33
32.33
30.33
16.33
20.67
12.67
15.67
9.67
18.33
8.33
23.67
-1.0
30.67
0.67
2.0
2.0
-6.33
5.67
6.67
2.0
5.33
12.33
15.67
-5.33
-2.33
10.67
6.67
2.0
6.33
-6.33
0.0
1.33
13.67
9.0
-0.33
0.33
11.33
5.0
3.33
4.0
2.0
-2.0
16.33
-3.0
-0.33
7.33
6.67
2.67
7.33
2.0
6.67
2.0
1.33
3.33
5.67
-1.0
1.67
7.67
5.0
6.33
10.0
-2.67
0.0
-1.0
1.67
5.0
7.0
-4.33
8.0
3.33
-2.67
2.33
-2.0
4.67
-3.67
-4.33
6.67
-1.33