File: EDX Back Ups and Old Files/Spectra copy 3.3.23/Samples/High pH SF 25C 9d/8.5.txt
0.0
-26.33
-36.0
-23.33
7.0
-6.0
-1.0
0.67
-0.33
-0.67
-0.33
0.67
-0.33
-1.33
0.67
0.0
1.0
0.67
5.33
2.33
2.0
-1.33
0.0
0.67
4.67
0.33
5.67
4.67
4.0
6.67
3.33
1.0
0.33
0.67
-1.33
4.67
2.33
-1.0
1.67
-3.33
5.33
-2.33
12.33
-3.33
1.33
-3.0
3.33
-2.33
-0.67
10.33
-1.0
1.33
3.67
5.0
5.33
3.33
2.33
-0.67
1.33
5.0
-0.67
-2.0
-3.67
1.0
-3.33
5.33
-1.67
-5.33
-1.33
2.67
-1.67
-1.33
4.33
-1.67
-2.67
-3.0
-3.0
-2.33
-3.0
2.0
1.33
2.33
-1.0
1.0
1.0
-4.33
6.33
-0.33
-0.33
0.67
4.67
1.33
-3.33
-3.0
2.0
-2.33
-0.33
-6.33
0.0
-4.33
0.0
0.0
-4.0
6.67
-2.0
-2.67
4.0
-1.67
0.67
1.0
-2.33
-2.33
4.33
3.67
14.33
13.0
25.33
27.67
12.67
10.67
3.67
3.33
1.33
4.33
7.67
2.33
5.33
3.33
2.33
9.33
1.0
-3.0
-2.0
-3.0
-3.0
5.0
4.0
1.33
3.33
1.33
5.0
2.67
1.67
0.67
2.33
0.33
5.0
18.33
15.33
7.0
16.0
6.33
15.33
11.33
6.33
1.67
16.67
10.67
5.33
-2.0
12.67
6.33
7.33
20.0
8.0
16.67
2.67
13.33
17.0
12.33
5.67
12.33
10.33
7.67
25.0
7.67
14.0
12.67
6.67
9.0
13.67
7.67
13.67
21.0
21.33
26.67
49.33
64.0
88.0
69.0
42.33
11.67
13.0
11.67
13.0
10.67
10.67
2.33
-0.67
23.33
-1.0
4.0
11.0
14.67
17.0
17.67
7.33
-2.67
-8.67
13.33
0.0
9.0
-3.0
14.67
5.67
14.67
31.33
25.33
48.33
14.33
27.67
10.67
4.67
6.67
-0.67
9.33
3.67
-8.0
6.67
-4.33
3.0
4.0
10.67
-0.33
8.67
11.0
6.33
20.33
19.67
6.67
6.67
5.67
14.67
12.0
2.33
1.67
10.0
10.33
8.67
15.0
-1.33
8.33
8.33
3.0
8.33
7.0
-4.0
-1.0
8.33
-4.0
4.67
8.33
0.67
1.67
-3.67
4.0
5.67
-1.0
1.33
-2.67
-5.33
5.0
6.67
1.67
3.0
5.33
6.0
3.33
3.0
1.0
-0.33
8.0
8.0
-4.33
-1.0
4.33
7.33
1.33
-1.0
0.67
0.33
-1.33
2.67
-0.33