File: EDX Back Ups and Old Files/Spectra copy 3.3.23/Samples/High pH SF 25C 9d/9.75.txt
0.0
97.67
31.0
4.67
3.0
-3.0
1.0
-0.33
-0.33
0.33
3.67
0.67
-0.33
-1.33
1.67
1.0
-2.0
-0.33
-1.67
0.33
-2.0
-3.33
3.0
8.67
-5.33
11.33
2.67
6.67
3.0
0.67
7.33
2.0
-1.67
-0.33
2.67
5.67
-0.67
4.0
0.67
2.67
7.33
0.67
-1.67
-1.33
0.33
-8.0
-1.67
4.67
1.33
9.33
4.0
7.33
6.67
0.0
0.33
1.33
0.33
-5.67
-5.67
-2.0
1.33
1.0
-0.67
4.0
-2.33
9.33
2.33
-0.33
0.67
1.67
-2.67
-1.33
4.33
-1.67
2.33
-1.0
-2.0
-0.33
-1.0
6.0
4.33
-2.67
0.0
10.0
-1.0
0.67
2.33
0.67
-2.33
-0.33
4.67
-2.67
-1.33
1.0
2.0
-1.33
1.67
-4.33
1.0
-0.33
-1.0
0.0
-3.0
0.67
-7.0
-2.67
-4.0
6.33
-3.33
5.0
3.67
0.67
2.33
0.67
6.33
15.0
22.33
19.67
9.67
6.67
11.67
1.33
5.33
9.33
1.67
1.33
3.33
1.33
1.33
2.33
3.0
-4.0
-1.0
1.0
3.0
8.0
8.0
7.33
1.33
3.33
0.0
-2.33
-3.33
2.67
-8.67
9.33
20.0
20.33
22.33
21.0
4.0
8.33
5.33
12.33
8.33
-7.33
13.67
7.67
4.33
2.0
10.67
9.33
13.33
12.0
2.0
19.67
10.67
8.33
-6.0
12.33
3.67
2.33
10.33
8.67
10.0
12.67
8.0
4.67
5.67
4.0
4.67
18.67
15.67
5.0
12.33
15.67
62.33
104.0
120.0
114.0
44.33
34.67
13.0
1.67
11.0
9.67
5.67
5.33
19.33
10.33
6.0
11.0
7.0
19.67
2.0
6.67
4.33
3.33
3.33
9.33
-1.0
6.0
3.0
8.67
14.67
9.67
18.33
25.33
26.33
16.33
13.67
16.67
4.67
2.67
1.33
-0.67
10.67
1.0
13.67
10.67
11.0
9.0
6.67
2.67
8.67
8.0
8.33
8.33
7.67
-7.33
8.67
3.67
-1.33
9.0
10.33
-2.33
5.0
13.33
4.67
12.0
3.67
1.33
19.33
4.0
8.33
7.0
0.0
4.0
7.33
-2.0
9.67
4.33
7.67
3.67
5.33
4.0
-2.33
-3.0
5.33
5.33
5.67
7.0
1.67
2.67
8.0
1.33
3.0
0.33
7.0
1.0
2.67
5.0
7.0
-0.33
1.0
5.33
-2.67
0.33
3.0
-1.33
-0.67
-1.33
-0.33
2.67