File: EDX Back Ups and Old Files/Spectra copy 3.3.23/Samples/Low pH SF 25C 4d/10.0.txt
0.0
-28.0
-5.0
7.67
-9.0
2.67
2.67
-0.33
-0.33
-0.67
0.0
-0.33
0.67
-1.33
-1.67
-1.0
-1.33
-1.33
-1.0
-1.67
3.67
4.67
1.0
2.67
-4.0
5.0
6.67
4.33
7.33
5.0
4.67
3.0
-2.33
4.67
-2.0
4.0
5.33
2.33
-1.0
0.67
1.0
4.0
2.67
1.67
1.0
0.33
7.33
1.0
-2.33
-3.33
5.33
3.0
-1.33
3.0
-3.0
5.33
6.67
1.67
0.33
2.67
4.67
4.33
4.33
2.67
3.33
1.33
3.67
1.0
1.67
2.33
-1.67
6.33
4.33
1.67
3.0
5.33
5.67
-0.33
-2.67
5.0
3.67
1.67
1.0
1.67
0.0
0.0
-1.67
-1.0
-3.0
2.33
3.0
-2.67
-1.0
-2.0
3.33
-1.0
3.67
2.67
1.67
3.0
-1.67
8.33
-1.0
-4.67
4.67
-5.0
4.0
1.0
0.0
1.67
0.0
1.33
1.0
0.67
-1.0
5.67
2.33
-1.0
-0.33
6.33
3.67
0.0
8.67
3.33
8.67
7.33
5.33
4.33
18.67
3.0
-0.67
4.0
20.67
18.67
26.0
22.67
12.0
11.33
13.33
32.67
40.67
49.33
38.33
21.67
22.67
29.33
27.67
23.67
18.33
26.67
22.0
30.67
36.33
30.33
33.0
48.67
46.67
33.0
10.67
10.0
10.67
8.67
14.33
17.0
11.0
14.0
20.67
17.33
18.33
74.33
177.33
205.67
119.0
48.0
43.67
46.33
41.0
44.67
88.0
72.33
47.33
20.67
4.0
-0.67
13.0
7.0
10.0
27.67
11.0
10.0
25.0
22.0
10.0
28.33
21.0
21.33
18.67
16.67
10.67
9.0
13.67
12.0
5.33
8.67
7.67
12.0
15.67
0.33
11.33
2.67
14.67
4.33
3.67
6.67
-1.0
15.33
14.67
9.67
9.0
8.33
14.67
-3.0
17.0
3.33
9.67
4.67
12.33
1.0
14.0
18.33
10.67
-1.33
1.33
15.67
2.33
-4.33
2.0
10.0
5.33
9.67
9.67
4.33
2.0
9.67
5.0
3.67
2.33
-1.33
11.33
8.33
-3.33
-5.67
-5.67
4.0
-2.67
-4.33
-1.67
12.0
0.33
4.67
-7.67
3.0
3.0
3.67
-4.67
-1.0
0.67
0.67
0.33
1.33
-1.33
2.33
0.0
2.33
-0.67
5.67
3.33
8.67
1.33
1.33
5.67
0.0
1.67
6.67
-3.0
-3.33
0.0
3.0
5.0
4.0
-1.67
-0.33
1.0
4.33