File: EDX Back Ups and Old Files/Spectra copy 3.3.23/Samples/Low pH SF 25C 4d/10.75.txt
0.0
-7.0
6.0
8.67
8.0
6.67
0.67
-0.33
-0.33
-0.67
0.0
0.67
-0.33
-1.33
-1.67
-2.0
0.67
0.67
-4.0
1.33
3.67
3.67
2.0
-2.33
2.0
7.0
-2.33
3.33
0.33
4.0
0.67
11.0
-1.33
6.67
-1.0
4.0
11.33
1.33
2.0
1.67
7.0
8.0
5.67
5.67
-3.0
4.33
3.33
0.0
3.67
5.67
-4.67
1.0
-1.33
8.0
1.0
6.33
0.67
5.67
4.33
10.67
3.67
1.33
2.33
-0.33
-3.67
2.33
-1.33
1.0
1.67
4.33
-0.67
-3.67
0.33
0.67
0.0
5.33
0.67
-2.33
-3.67
-3.0
-1.33
-1.33
10.0
-0.33
4.0
-1.0
-2.67
1.0
-2.0
8.33
-1.0
-1.67
0.0
3.0
1.33
3.0
-0.33
0.67
-2.33
4.0
-0.67
1.33
4.0
-1.67
-4.33
2.0
4.0
6.0
-5.0
-0.33
-2.0
-1.67
1.0
1.67
6.0
0.67
6.33
6.0
6.67
1.33
1.67
7.0
9.67
14.33
7.67
5.33
1.33
8.33
11.67
9.0
15.33
16.0
12.67
28.67
30.0
31.67
27.0
12.33
13.33
15.67
25.67
27.33
69.33
52.67
22.67
18.33
26.67
22.67
28.33
28.67
22.0
35.67
37.33
26.33
28.0
30.67
24.67
27.0
17.67
4.0
14.67
13.67
19.33
16.0
25.0
14.0
9.67
27.33
24.33
72.33
154.33
159.67
114.0
41.0
32.67
23.33
70.0
95.67
73.0
124.33
95.33
72.67
32.0
15.33
28.0
25.0
23.0
18.67
21.0
28.0
36.0
23.0
12.0
22.33
15.0
23.33
28.67
20.67
9.67
10.0
17.67
4.0
11.33
5.67
21.67
2.0
18.67
17.33
17.33
-5.33
5.67
5.33
-0.33
-6.33
3.0
12.33
14.67
3.67
7.0
4.33
5.67
8.0
-2.0
5.33
15.67
4.67
15.33
16.0
19.0
-0.67
5.67
-2.33
4.33
5.67
11.33
-3.33
7.0
-3.0
16.33
9.67
3.67
6.33
0.0
1.67
7.0
2.67
6.33
-6.33
7.33
1.33
15.67
2.33
-0.67
0.0
-2.67
-0.33
-3.67
-1.0
0.33
0.67
-9.67
1.0
3.0
5.67
2.33
-5.0
4.67
8.67
-1.67
1.33
7.67
4.33
1.0
4.33
-3.67
3.67
-0.67
2.67
5.33
3.33
0.67
2.0
1.67
2.67
3.0
-3.33
1.0
-1.0
1.0
4.0
-2.67
-2.33
4.0
4.33