File: EDX Back Ups and Old Files/Spectra copy 3.3.23/Samples/Low pH SF 25C 4d/11.0.txt
0.0
-17.0
-37.0
3.67
-8.0
1.67
3.67
-0.33
0.67
-0.67
0.0
0.67
-0.33
-1.33
-0.67
-2.0
1.67
2.67
-1.0
0.33
1.67
0.67
-2.0
3.67
1.0
8.0
-1.33
4.33
9.33
3.0
0.67
1.0
0.67
-2.33
0.0
3.0
1.33
-3.67
2.0
6.67
-4.0
6.0
5.67
4.67
-5.0
0.33
1.33
1.0
5.67
-0.33
2.33
-3.0
0.67
4.0
3.0
4.33
2.67
-2.33
8.33
2.67
0.67
3.33
2.33
5.67
-4.67
5.33
-2.33
0.0
0.67
-0.67
5.33
-3.67
4.33
-0.33
3.0
3.33
3.67
-0.33
0.33
0.0
4.67
3.67
3.0
3.67
4.0
1.0
-0.67
0.0
4.0
2.33
3.0
0.33
-2.0
-2.0
3.33
7.0
3.67
-3.33
-1.33
4.0
0.33
8.33
3.0
-2.67
4.67
-4.0
2.0
8.0
-5.0
4.67
1.0
6.33
1.0
3.67
0.0
6.67
2.33
4.0
3.67
6.33
-0.33
5.0
26.67
12.33
15.67
15.33
14.33
9.33
12.67
12.0
15.33
17.0
8.67
28.67
23.0
22.67
22.0
11.33
9.33
17.67
25.67
59.33
62.33
24.67
29.67
10.33
15.67
26.67
30.33
18.67
21.0
36.67
48.33
47.33
44.0
20.67
26.67
21.0
12.67
10.0
6.67
10.67
11.33
11.0
12.0
9.0
16.67
18.33
46.33
90.33
128.33
126.67
82.0
75.0
23.67
33.33
64.0
66.67
74.0
33.33
38.33
33.67
21.0
13.33
15.0
3.0
16.0
27.67
33.0
22.0
34.0
26.0
20.0
23.33
23.0
17.33
7.67
13.67
3.67
4.0
13.67
4.0
10.33
3.67
11.67
20.0
19.67
8.33
13.33
10.67
4.67
5.33
15.67
8.67
-1.0
12.33
15.67
10.67
2.0
22.33
17.67
-5.0
5.0
19.33
26.67
11.67
16.33
6.0
16.0
-5.67
11.67
6.67
4.33
11.67
20.33
4.67
9.0
8.0
9.33
16.67
-1.33
4.33
7.0
0.67
0.0
-1.33
2.33
-7.33
3.33
-2.67
7.67
1.33
-4.67
6.0
5.33
8.67
-0.67
-2.0
5.33
5.67
-1.67
5.0
2.0
-0.33
2.33
-1.0
12.67
-0.33
-1.67
1.33
10.67
1.33
-1.0
11.33
8.33
-0.33
-3.67
1.67
3.33
-5.67
-0.33
0.0
1.67
5.67
4.0
-3.33
4.0
11.0
6.0
-1.0
1.33
-5.33
3.0
-1.67