File: EDX Back Ups and Old Files/Spectra copy 3.3.23/Samples/Low pH SF 25C 4d/12.25.txt
0.0
7.0
-5.0
4.67
-4.0
1.67
-0.33
-0.33
-0.33
-0.67
1.0
-0.33
-0.33
0.67
-0.67
-1.0
2.67
1.67
-1.0
3.33
7.67
-0.33
3.0
3.67
-7.0
3.0
-2.33
3.33
4.33
3.0
-5.33
0.0
-5.33
4.67
-5.0
2.0
7.33
-7.67
-2.0
5.67
-4.0
6.0
1.67
0.67
-7.0
-2.67
-2.67
0.0
1.67
-0.33
-1.67
2.0
-0.33
-1.0
-1.0
-0.67
1.67
-1.33
9.33
-0.33
4.67
-0.67
4.33
0.67
2.33
2.33
-0.33
0.0
3.67
0.33
3.33
-3.67
0.33
0.67
-3.0
1.33
-0.33
-3.33
-2.67
4.0
2.67
-1.33
2.0
-1.33
-1.0
-5.0
1.33
5.0
-5.0
3.33
-1.0
-2.67
-2.0
-5.0
-0.67
0.0
0.67
-0.33
-2.33
1.0
-0.67
-0.67
-2.0
1.33
0.67
-1.0
0.0
1.0
-6.0
-0.33
-3.0
-2.67
8.0
3.67
0.0
1.67
4.33
-3.0
0.67
2.33
-0.33
2.0
4.67
0.33
-1.33
-0.67
-5.67
-0.67
1.67
-7.0
-1.67
0.0
-3.33
3.67
-8.0
1.67
1.0
1.33
1.33
-0.33
-7.33
-2.67
2.33
0.67
-6.33
0.33
-0.33
1.67
1.33
-4.33
3.0
-2.33
1.33
0.33
1.0
7.67
-0.33
-5.0
4.67
5.0
2.67
2.67
-0.67
-3.0
-2.0
-3.0
0.67
5.33
-2.67
8.33
-0.67
-2.33
-2.0
4.0
-1.33
0.33
2.0
-7.33
-4.0
-0.67
1.33
-1.33
4.0
6.33
-3.0
0.0
-1.0
1.67
1.0
1.0
3.0
4.0
2.0
7.33
-2.0
-0.67
0.67
-4.33
-5.33
1.0
2.67
4.0
2.33
1.67
-5.33
8.0
0.67
0.33
1.33
0.67
-12.33
2.33
-10.33
0.67
-4.0
-4.67
6.67
-4.33
-9.0
-3.67
1.67
10.0
-2.0
-2.67
-1.33
-6.33
0.33
-8.0
2.0
-1.67
1.67
-7.33
3.33
2.67
2.33
-12.33
-2.0
3.0
6.33
2.67
1.67
-1.67
-2.0
1.67
3.0
-9.33
0.33
1.67
1.33
-3.67
-1.33
-0.67
-0.67
4.0
-2.67
-1.33
-6.67
-4.0
0.33
5.67
-9.67
-2.0
1.0
0.67
1.33
-8.0
4.67
2.67
1.33
0.33
7.67
-2.67
-6.0
-1.67
-1.67
-2.33
-1.67
-1.33
2.33
-3.67
-3.33
4.0
-2.33
5.67
-2.0
-5.33
-3.0
3.0
0.0
3.0
1.33
-6.33
-1.0
1.33