File: EDX Back Ups and Old Files/Spectra copy 3.3.23/Samples/Low pH SF 25C 4d/6.5.txt
0.0
-56.0
-53.0
-1.33
-10.0
0.67
-0.33
-0.33
-0.33
-0.67
0.0
-0.33
-0.33
-2.33
-0.67
-1.0
1.67
-0.33
-1.0
-0.67
11.67
0.67
4.0
9.67
1.0
-3.0
8.67
6.33
12.33
1.0
2.67
7.0
3.67
5.67
3.0
1.0
11.33
7.33
3.0
1.67
-1.0
10.0
10.67
0.67
4.0
-1.67
-1.67
-1.0
-0.33
5.67
9.33
4.0
4.67
5.0
2.0
3.33
7.67
-1.33
-1.67
1.67
1.67
-1.67
3.33
0.67
3.33
6.33
1.67
0.0
3.67
1.33
4.33
-0.67
6.33
4.67
-2.0
-0.67
4.67
-3.33
4.33
0.0
3.67
0.67
1.0
1.67
-2.0
2.0
8.33
5.0
0.0
4.33
2.0
0.33
1.0
-6.0
1.33
9.0
1.67
-1.33
0.67
2.0
0.33
0.33
3.0
-0.67
-0.33
-1.0
2.0
3.0
-2.0
-4.33
0.0
-0.67
-2.0
-0.33
1.0
0.67
2.33
4.0
-1.33
6.33
1.67
2.0
4.67
1.33
2.67
11.33
6.33
6.33
12.67
10.0
3.33
9.0
0.67
2.67
21.0
4.67
8.0
3.33
11.33
9.67
16.67
25.33
21.33
17.67
23.67
28.33
16.67
17.67
23.33
28.67
28.0
32.67
33.33
16.33
16.0
21.67
16.67
19.0
10.67
4.0
8.67
6.67
7.33
21.0
15.0
21.0
16.67
20.33
29.33
60.33
122.33
115.67
62.0
51.0
39.67
21.33
44.0
60.67
58.0
36.33
43.33
2.67
11.0
10.33
3.0
3.0
8.0
16.67
20.0
16.0
29.0
22.0
22.0
20.33
12.0
14.33
19.67
7.67
8.67
-1.0
12.67
10.0
10.33
-4.33
15.67
27.0
10.67
4.33
17.33
6.67
-3.33
21.33
-7.33
0.67
4.0
13.33
17.67
3.67
8.0
18.33
12.67
13.0
15.0
13.33
20.67
1.67
11.33
14.0
13.0
2.33
12.67
14.67
7.33
7.67
5.33
-4.33
10.0
17.0
8.33
11.67
1.67
10.33
1.0
9.67
-2.0
1.67
4.33
0.67
1.33
5.33
11.67
10.33
8.33
7.0
6.33
10.67
-2.67
11.0
1.33
17.67
-4.67
-2.0
8.0
3.67
-4.67
-3.0
2.67
2.67
9.33
-0.67
7.67
-1.67
2.0
13.33
1.33
6.67
-1.67
9.67
2.33
6.33
2.67
5.0
2.67
0.67
2.0
0.67
-2.0
-1.0
2.0
1.0
-1.67
-6.33
3.0
3.33