File: EDX Back Ups and Old Files/Spectra copy 3.3.23/Samples/Low pH SF 25C 4d/7.25.txt
0.0
-38.0
-38.0
-15.33
-6.0
3.67
-0.33
0.67
0.67
-0.67
3.0
-0.33
1.67
-2.33
-0.67
0.0
4.67
-2.33
-2.0
1.33
4.67
0.67
4.0
6.67
-2.0
6.0
4.67
3.33
2.33
0.0
-2.33
6.0
1.67
2.67
2.0
1.0
0.33
-0.67
3.0
1.67
-3.0
3.0
0.67
2.67
1.0
9.33
-0.67
0.0
-1.33
-2.33
2.33
2.0
3.67
7.0
1.0
7.33
-0.33
-0.33
-0.67
5.67
3.67
0.33
6.33
2.67
-1.67
7.33
-3.33
9.0
3.67
0.33
1.33
-1.67
1.33
7.67
1.0
1.33
4.67
0.67
2.33
-2.0
2.67
0.67
7.0
4.67
1.0
2.0
-1.67
3.0
-2.0
4.33
5.0
5.33
-1.0
1.0
4.33
0.0
1.67
2.67
0.67
1.0
1.33
0.33
4.0
3.33
-0.33
0.0
10.0
7.0
-1.0
3.67
-6.0
-1.67
2.0
0.67
3.0
3.67
-2.67
4.0
-1.33
2.33
0.67
-1.0
7.67
4.33
9.67
6.33
1.33
7.33
4.67
5.0
-0.67
9.0
11.67
25.67
43.0
32.67
16.0
11.33
11.33
8.67
7.67
18.33
25.33
9.67
14.67
10.33
17.67
28.67
13.33
14.67
19.0
16.67
36.33
19.33
26.0
23.67
18.67
23.0
9.67
6.0
9.67
3.67
11.33
21.0
15.0
4.0
15.67
6.33
7.33
33.33
86.33
151.67
164.0
110.0
30.67
17.33
23.0
28.67
30.0
34.33
24.33
23.67
18.0
8.33
10.0
12.0
7.0
5.67
26.0
5.0
21.0
9.0
14.0
24.33
21.0
3.33
18.67
16.67
8.67
6.0
14.67
11.0
13.33
2.67
6.67
8.0
10.67
10.33
12.33
1.67
11.67
8.33
3.67
-0.33
2.0
25.33
17.67
-0.33
4.0
4.33
11.67
20.0
4.0
17.33
12.67
11.67
7.33
11.0
17.0
7.33
14.67
9.67
7.33
14.67
6.33
9.67
14.0
-3.0
-0.67
6.67
7.67
11.33
4.0
10.67
-3.0
6.67
2.33
-8.33
10.33
-0.67
7.67
14.33
3.33
10.0
0.33
9.67
10.33
2.0
-5.67
2.67
-3.67
5.0
7.0
15.67
-0.67
-1.0
2.67
-4.33
-1.67
4.33
6.67
-0.67
-1.0
2.33
1.33
-3.33
2.33
2.67
5.33
-4.67
-5.33
4.0
11.67
7.67
-1.0
0.67
1.0
7.0
3.0
-2.0
0.33
-3.33
6.0
6.33