File: EDX Back Ups and Old Files/Spectra copy 3.3.23/Samples/Low pH SF 25C 4d/7.75.txt
0.0
-38.0
7.0
3.67
-1.0
0.67
-0.33
-0.33
-0.33
-0.67
0.0
0.67
-0.33
-0.33
0.33
1.0
2.67
1.67
-1.0
1.33
7.67
2.67
-1.0
5.67
4.0
4.0
0.67
12.33
7.33
5.0
-6.33
1.0
4.67
2.67
-1.0
2.0
1.33
-0.67
2.0
-2.33
0.0
0.0
0.67
-4.33
-2.0
-0.67
0.33
4.0
5.67
3.67
5.33
0.0
4.67
-2.0
1.0
7.33
2.67
2.67
9.33
4.67
6.67
12.33
9.33
1.67
-4.67
-0.67
-2.33
2.0
-1.33
1.33
3.33
-3.67
7.33
2.67
2.0
2.33
0.67
-1.33
-0.67
0.0
-3.33
-1.33
2.0
-0.33
1.0
-1.0
1.33
0.0
-1.0
4.33
4.0
1.33
0.0
1.0
1.33
-1.0
-1.33
2.67
4.67
5.0
-1.67
-2.67
4.0
-3.67
3.67
-2.0
4.0
4.0
0.0
2.67
0.0
-1.67
7.0
4.67
-3.0
2.67
-2.67
-2.0
2.67
8.33
8.67
5.0
11.67
4.33
7.67
3.33
0.33
4.33
1.67
2.0
7.33
7.0
1.67
18.67
30.0
33.67
19.0
12.33
11.33
7.67
11.67
33.33
26.33
11.67
23.67
30.33
18.67
25.67
18.33
6.67
26.0
19.67
20.33
22.33
10.0
25.67
10.67
18.0
13.67
17.0
8.67
8.67
18.33
13.0
7.0
17.0
14.67
11.33
25.33
87.33
200.33
195.67
101.0
28.0
14.67
23.33
23.0
33.67
51.0
43.33
37.33
22.67
14.0
9.33
16.0
2.0
12.0
14.67
16.0
27.0
25.0
17.0
16.0
-3.67
17.0
26.33
4.67
1.67
12.67
2.0
8.67
1.0
11.33
14.67
16.67
10.0
10.67
6.33
16.33
2.67
11.67
6.33
9.67
7.67
12.0
-2.67
10.67
3.67
17.0
12.33
12.67
14.0
14.0
6.33
8.67
11.67
1.33
17.0
25.0
12.33
-3.33
15.67
15.33
14.67
3.33
3.67
-1.0
2.0
9.33
4.67
6.67
3.33
1.0
1.67
-12.0
-0.33
8.33
0.67
7.33
-4.67
9.67
0.33
-2.67
9.0
-0.67
4.67
1.33
5.0
-3.67
9.67
-4.67
3.0
5.0
1.67
1.33
-2.0
2.67
11.67
-2.67
1.33
7.67
1.33
-6.0
8.33
-1.67
4.67
1.33
-0.33
4.33
3.33
-0.33
5.0
1.67
6.67
-5.0
1.67
1.0
5.0
0.0
0.0
3.33
3.67
3.0
-2.67