File: EDX Back Ups and Old Files/Spectra copy 3.3.23/Samples/Low pH SF 25C 4d/9.5.txt
0.0
-89.0
5.0
23.67
-12.0
2.67
-0.33
-0.33
0.67
0.33
0.0
-0.33
0.67
1.67
-1.67
0.0
0.67
-1.33
2.0
1.33
9.67
1.67
0.0
0.67
-5.0
3.0
4.67
10.33
2.33
2.0
1.67
1.0
-3.33
7.67
3.0
2.0
10.33
2.33
7.0
5.67
0.0
1.0
4.67
2.67
-5.0
-0.67
1.33
-2.0
0.67
-1.33
2.33
3.0
-1.33
-2.0
6.0
8.33
-0.33
1.67
3.33
2.67
1.67
1.33
5.33
-0.33
3.33
1.33
-3.33
3.0
0.67
-1.67
0.33
-3.67
5.33
-2.33
-3.0
3.33
4.67
-2.33
-1.67
1.0
3.67
-0.33
2.0
1.67
-1.0
4.0
2.33
3.0
-2.0
0.33
4.0
2.33
2.0
-4.0
2.33
0.0
1.67
-0.33
-0.33
1.0
0.33
2.33
-4.0
-1.67
-2.33
2.0
7.0
1.0
0.0
3.67
-3.0
-2.67
5.0
2.67
5.0
6.67
7.33
12.0
-1.33
8.33
8.67
3.0
15.67
5.33
3.67
10.33
9.33
14.33
8.67
8.0
10.33
3.0
7.67
17.67
17.0
14.67
13.0
13.33
10.33
15.67
18.67
26.33
16.33
10.67
8.67
16.33
22.67
25.67
19.33
15.67
11.0
30.67
37.33
41.33
31.0
19.67
25.67
13.0
16.67
14.0
13.67
18.67
12.33
18.0
34.0
28.0
15.67
13.33
35.33
98.33
159.33
153.67
73.0
20.0
32.67
35.33
48.0
33.67
42.0
25.33
41.33
14.67
14.0
13.33
18.0
2.0
16.0
19.67
20.0
29.0
20.0
27.0
10.0
24.33
9.0
15.33
24.67
26.67
9.67
2.0
21.67
8.0
15.33
12.67
16.67
10.0
13.67
11.33
11.33
-3.33
8.67
6.33
4.67
12.67
-4.0
-4.67
15.67
-2.33
7.0
13.33
5.67
9.0
10.0
17.33
22.67
6.67
11.33
3.0
10.0
-0.67
7.67
11.67
13.33
5.67
13.33
1.67
6.0
0.0
5.33
8.67
2.67
5.33
5.0
-3.33
1.0
1.67
-1.67
1.67
8.33
7.33
7.67
-1.67
6.33
2.0
-5.67
2.67
-2.67
7.0
-1.67
4.67
-6.67
8.0
8.0
1.67
-3.67
-9.0
5.67
-0.33
2.33
0.33
6.67
-4.67
2.0
-0.67
3.33
1.67
-2.67
2.67
5.33
-3.67
2.67
-1.0
5.67
9.67
4.0
2.67
8.0
1.0
5.0
-1.0
5.33
-2.33
4.0
1.33