File: EDX Back Ups and Old Files/Spectra copy 3.3.23/Samples/Low pH SF 25C 4d/background.txt
0.0
1889.0
1058.0
239.33
41.0
3.33
0.33
0.33
0.33
0.67
0.0
0.33
0.33
2.33
1.67
2.0
1.33
3.33
7.0
5.67
3.33
8.33
8.0
8.33
11.0
7.0
9.33
5.67
5.67
9.0
12.33
9.0
11.33
8.33
10.0
8.0
10.67
11.67
9.0
10.33
11.0
7.0
7.33
8.33
11.0
9.67
9.67
10.0
8.33
9.33
7.67
7.0
8.33
8.0
8.0
6.67
6.33
8.33
6.67
6.33
4.33
6.67
4.67
6.33
7.67
4.67
7.33
6.0
4.33
5.67
6.67
7.67
4.67
6.33
5.0
3.67
2.33
6.33
4.67
5.0
3.33
5.33
3.0
4.33
5.0
5.0
4.67
4.0
7.0
2.67
3.0
5.67
6.0
6.0
3.67
4.0
4.33
5.33
6.33
5.0
6.67
5.67
7.0
8.67
6.33
8.0
5.0
5.0
9.0
7.33
11.0
8.67
6.0
6.33
9.0
7.33
8.67
8.0
7.33
6.67
9.33
10.0
7.33
9.67
8.33
7.67
10.67
8.67
7.33
9.0
11.67
10.0
10.33
13.33
15.0
9.33
10.0
8.67
9.67
10.33
11.33
7.67
6.67
8.33
10.33
7.67
6.33
9.33
9.67
11.33
11.0
12.33
9.67
8.67
9.0
9.33
10.33
8.0
10.33
9.0
7.33
11.33
10.67
13.0
25.0
15.0
11.33
12.67
24.67
30.67
20.67
8.33
11.0
12.0
12.33
9.67
9.0
14.33
12.0
14.67
10.67
16.33
11.0
13.67
12.0
16.0
17.0
15.33
18.0
20.0
25.0
28.0
25.0
16.67
20.0
19.67
21.33
21.33
21.33
24.0
18.33
20.0
21.67
23.33
19.33
22.0
21.33
24.67
17.67
29.33
25.33
25.67
27.33
29.33
28.0
25.67
22.33
27.33
32.0
24.67
23.33
28.0
27.0
28.67
26.33
34.33
29.67
30.0
23.0
33.67
25.33
24.33
26.67
23.33
24.67
28.33
21.0
24.0
21.67
18.33
21.33
20.67
20.0
20.33
22.0
21.33
20.67
26.33
16.67
18.67
19.33
19.67
21.67
16.0
19.67
17.33
18.67
18.0
15.67
11.33
19.67
15.0
9.0
11.33
13.67
15.0
8.33
11.33
14.67
10.67
9.33
12.67
14.0
7.67
10.67
10.33
11.67
10.33
7.67
11.67
11.33
11.0
9.33
5.33
9.0
12.33
8.0
6.0
6.0
8.0
7.67
9.33
6.0
7.67