File: EDX Back Ups and Old Files/Spectra copy 3.3.23/Samples/Low pH SF 25C 14d/10.25.txt
0.0
-65.33
-50.33
-47.33
2.33
2.0
-1.0
2.67
-0.33
-0.33
-0.67
0.67
1.0
-1.33
0.33
-0.33
0.0
1.0
-1.0
1.33
3.33
2.67
6.33
1.33
0.33
-3.0
2.67
3.33
-1.67
9.0
4.0
11.67
7.0
5.67
3.67
2.67
5.0
6.33
4.0
-4.33
-0.33
-1.67
-3.67
-0.33
6.67
3.33
-3.0
4.67
5.67
1.33
0.67
5.33
0.33
2.67
8.67
3.0
4.0
-2.67
2.0
9.0
2.33
-3.0
-1.33
-3.33
3.33
6.67
1.33
3.0
9.33
-0.33
-0.67
4.0
5.33
1.0
4.0
-1.33
3.0
-0.33
1.67
0.0
-2.0
1.0
2.33
-2.33
1.33
1.67
2.67
-0.33
-2.0
-2.33
2.0
1.0
-0.33
0.67
1.33
-1.0
-4.33
-0.33
0.0
-1.33
-0.67
0.67
-1.0
-2.0
0.67
-0.33
-2.33
1.0
4.67
-0.67
5.0
5.67
0.0
-1.33
4.0
-0.33
10.33
7.33
13.0
-2.67
9.33
7.0
7.67
2.0
3.67
10.33
11.67
10.33
5.33
8.67
13.67
6.67
10.0
22.67
65.0
68.0
60.67
28.33
22.67
31.33
50.33
46.67
26.67
8.67
14.0
13.33
11.33
18.0
15.33
15.0
26.67
24.67
38.33
29.33
28.67
27.0
15.0
23.33
16.33
21.0
18.33
16.67
7.67
4.0
23.67
9.67
28.33
12.33
22.67
52.33
117.67
170.67
107.67
73.33
51.67
31.33
54.33
95.33
94.67
64.33
37.0
10.33
17.67
6.67
7.0
15.0
17.33
24.33
22.33
31.33
22.67
16.33
18.67
28.0
29.33
27.0
27.0
25.67
20.67
9.67
4.0
12.0
8.33
17.0
15.33
21.0
-0.67
11.33
2.0
8.33
16.67
8.67
12.67
3.33
-7.0
18.0
10.33
16.33
16.33
10.33
13.33
9.67
9.33
10.0
13.33
13.33
10.67
3.0
9.33
7.0
8.0
18.0
16.0
8.67
7.33
4.33
-2.33
10.0
6.33
5.0
0.33
9.0
6.0
1.67
-7.0
1.67
8.0
0.67
23.33
3.67
7.33
1.67
4.67
-0.67
0.0
-1.33
1.0
-1.33
7.33
2.67
8.0
7.67
3.67
4.67
0.0
6.67
4.67
-2.0
5.67
5.33
4.67
0.33
1.67
-2.0
0.33
-1.67
-4.33
2.0
6.33
2.0
8.0
0.33
2.67
5.33
1.33
6.67
7.33
-3.67
-2.67
3.67
1.33
0.0
0.33
-2.0