File: EDX Back Ups and Old Files/Spectra copy 3.3.23/Samples/Low pH SF 25C 14d/10.5.txt
0.0
-21.33
-10.33
-27.33
-0.67
0.0
0.0
-0.33
1.67
-0.33
-0.67
-0.33
1.0
-1.33
-1.67
-1.33
0.0
0.0
-2.0
6.33
4.33
2.67
0.33
7.33
7.33
-4.0
-0.33
-2.67
0.33
4.0
0.0
1.67
6.0
7.67
-0.33
4.67
0.0
4.33
1.0
-4.33
0.67
11.33
1.33
-2.33
6.67
4.33
6.0
4.67
-1.33
-0.67
0.67
6.33
0.33
-1.33
-0.33
-2.0
0.0
-1.67
-1.0
1.0
1.33
-1.0
1.67
0.67
1.33
0.67
1.33
4.0
0.33
0.67
0.33
4.0
5.33
4.0
4.0
-0.33
-2.0
-0.33
0.67
-3.0
-2.0
4.0
2.33
-0.33
1.33
-1.33
0.67
1.67
2.0
4.67
7.0
-1.0
-0.33
-1.33
-1.67
1.0
3.67
4.67
-3.0
1.67
8.33
5.67
0.0
1.0
-3.33
0.67
2.67
-2.0
0.67
1.33
2.0
1.67
0.0
0.67
11.0
1.67
5.33
6.33
3.0
2.33
6.33
5.0
7.67
2.0
12.67
4.33
1.67
10.33
13.33
6.67
10.67
7.67
10.0
29.67
46.0
68.0
89.67
29.33
14.67
32.33
56.33
52.67
40.67
12.67
18.0
9.33
17.33
19.0
20.33
16.0
18.67
32.67
40.33
45.33
38.67
34.0
20.0
14.33
19.33
13.0
13.33
13.67
4.67
11.0
13.67
15.67
12.33
9.33
18.67
54.33
105.67
99.67
51.67
42.33
29.67
43.33
57.33
97.33
87.67
45.33
28.0
23.33
20.67
23.67
13.0
11.0
11.33
31.33
24.33
38.33
19.67
26.33
10.67
15.0
34.33
38.0
48.0
26.67
22.67
15.67
8.0
13.0
3.33
7.0
12.33
5.0
13.33
3.33
1.0
7.33
6.67
16.67
12.67
-6.67
5.0
20.0
4.33
12.33
15.33
9.33
14.33
2.67
1.33
18.0
7.33
17.33
11.67
3.0
9.33
23.0
9.0
10.0
12.0
12.67
25.33
-1.67
15.67
18.0
4.33
-3.0
2.33
18.0
0.0
4.67
-3.0
6.67
5.0
7.67
2.33
-0.33
11.33
0.67
8.67
-1.67
1.0
1.67
0.0
4.67
3.33
13.67
8.0
1.67
4.67
-1.33
-2.0
5.67
3.67
9.0
0.67
8.33
3.67
7.33
0.67
6.0
-0.67
3.33
1.67
1.0
7.33
-1.0
-3.0
3.33
3.67
5.33
0.33
2.67
1.33
-0.67
-1.67
-0.33
2.33
0.0
-1.67
6.0