File: EDX Back Ups and Old Files/Spectra copy 3.3.23/Samples/Low pH SF 25C 14d/11.0.txt
0.0
66.67
14.67
-8.33
-0.67
-1.0
-1.0
0.67
-0.33
0.67
-0.67
0.67
0.0
0.67
-0.67
0.67
0.0
0.0
2.0
5.33
2.33
-0.33
6.33
1.33
-0.67
-2.0
5.67
1.33
-1.67
2.0
-4.0
7.67
1.0
6.67
4.67
0.67
2.0
4.33
7.0
-6.33
-1.33
3.33
-3.67
2.67
9.67
11.33
4.0
1.67
3.67
0.33
4.67
2.33
-2.67
-1.33
3.67
2.0
1.0
5.33
-1.0
6.0
0.33
2.0
-1.33
5.67
4.33
2.67
2.33
0.0
8.33
0.67
2.33
2.0
9.33
0.0
-2.0
1.67
0.0
1.67
1.67
-3.0
0.0
2.0
3.33
3.67
0.33
2.67
0.67
7.67
3.0
2.67
3.0
0.0
-1.33
1.67
-1.67
3.0
-2.33
1.67
-3.0
-0.33
0.33
1.67
-3.0
8.0
2.67
0.67
3.67
-2.0
0.67
4.33
5.0
5.67
5.0
4.67
3.0
-1.33
14.33
0.33
8.0
6.33
12.33
9.0
13.67
9.0
2.67
11.33
13.67
19.33
8.33
9.67
15.67
5.67
11.0
53.67
58.0
94.0
85.67
29.33
7.67
18.33
39.33
58.67
55.67
22.67
19.0
19.33
11.33
24.0
21.33
19.0
39.67
42.67
62.33
63.33
51.67
34.0
37.0
27.33
25.33
17.0
4.33
13.67
5.67
19.0
7.67
27.67
6.33
13.33
37.67
76.33
120.67
91.67
70.67
46.33
10.67
28.33
52.33
72.33
51.67
53.33
24.0
24.33
11.67
16.67
15.0
4.0
20.33
30.33
32.33
34.33
34.67
23.33
30.67
19.0
27.33
40.0
31.0
14.67
15.67
17.67
4.0
12.0
-2.67
8.0
20.33
19.0
18.33
36.33
1.0
12.33
6.67
9.67
5.67
-7.67
11.0
12.0
5.33
8.33
24.33
9.33
1.33
-5.33
15.33
10.0
7.33
2.33
12.67
7.0
0.33
27.0
10.0
19.0
13.0
14.67
18.33
2.33
7.67
-3.0
3.33
-3.0
5.33
0.0
-3.0
7.67
-11.0
3.67
6.0
-6.33
11.33
1.67
0.33
8.67
1.67
0.33
7.0
-3.33
5.0
1.67
1.33
14.67
4.0
0.67
-1.33
-5.33
6.0
7.67
5.67
2.0
0.67
8.33
3.67
2.33
4.67
4.0
1.33
0.33
-4.33
0.0
7.33
0.0
4.0
5.33
2.67
4.33
-1.67
7.67
6.33
-3.67
-2.67
-2.33
-0.67
-2.0
7.33
2.0