File: EDX Back Ups and Old Files/Spectra copy 3.3.23/Samples/Low pH SF 25C 14d/11.75.txt
0.0
62.67
-2.33
-40.33
-5.67
-1.0
0.0
0.67
-0.33
-0.33
-0.67
-0.33
0.0
-1.33
-1.67
0.67
1.0
1.0
1.0
5.33
-0.67
-3.33
4.33
1.33
2.33
3.0
0.67
1.33
0.33
-2.0
-4.0
6.67
-1.0
-1.33
6.67
8.67
4.0
9.33
-2.0
-8.33
3.67
10.33
4.33
-4.33
7.67
7.33
0.0
1.67
-2.33
4.33
0.67
3.33
-1.67
-3.33
5.67
2.0
-2.0
3.33
2.0
-4.0
2.33
3.0
3.67
1.67
-2.67
6.67
6.33
3.0
6.33
2.67
2.33
1.0
0.33
0.0
3.0
-0.33
-1.0
5.67
1.67
-3.0
-5.0
3.0
-0.67
0.67
0.33
-0.33
3.67
4.67
1.0
2.67
7.0
2.0
7.67
-4.33
-0.67
1.0
2.67
5.67
0.0
6.67
-0.67
0.67
2.0
2.0
2.67
3.67
-1.33
0.0
5.67
4.33
5.0
-4.33
7.0
1.67
3.0
-5.33
7.33
5.33
3.0
0.33
7.33
8.0
7.67
-3.0
4.67
-1.67
3.67
2.33
6.33
4.67
8.67
6.67
12.0
16.67
38.0
31.0
54.67
23.33
9.67
5.33
23.33
32.67
31.67
17.67
13.0
11.33
18.33
34.0
19.33
37.0
43.67
64.67
36.33
26.33
34.67
18.0
24.0
19.33
12.33
10.0
8.33
3.67
11.67
13.0
21.67
20.67
22.33
13.33
24.67
43.33
83.67
67.67
69.67
42.33
19.67
31.33
19.33
26.33
59.67
45.33
25.0
18.33
9.67
9.67
0.0
12.0
14.33
26.33
30.33
37.33
17.67
11.33
18.67
14.0
13.33
24.0
24.0
7.67
11.67
3.67
10.0
-2.0
-0.67
3.0
14.33
-3.0
-2.67
-0.67
5.0
11.33
1.67
14.67
-0.33
5.33
1.0
-4.0
2.33
3.33
6.33
5.33
2.33
-4.33
-3.67
1.0
8.33
-0.67
-1.33
9.0
17.33
8.0
17.0
-3.0
2.0
5.67
2.33
7.33
0.67
7.0
12.33
1.0
5.33
4.0
3.0
4.67
-12.0
10.67
2.0
-10.33
9.33
-3.33
11.33
7.67
5.67
1.33
4.0
1.67
6.0
3.67
-1.67
4.67
4.0
-3.33
0.67
3.67
3.0
3.67
5.67
-2.0
3.67
6.33
2.67
1.33
4.67
-3.0
3.33
1.33
1.67
-1.0
3.33
3.0
1.0
-0.67
-2.33
0.33
4.33
0.67
5.33
0.33
-2.67
-3.33
1.33
-3.0
4.33
4.0