File: EDX Back Ups and Old Files/Spectra copy 3.3.23/Samples/Low pH SF 25C 14d/6.5.txt
0.0
53.67
43.67
-46.33
13.33
-1.0
-1.0
0.67
-0.33
-0.33
1.33
-0.33
0.0
0.67
0.33
1.67
0.0
2.0
1.0
0.33
1.33
-3.33
5.33
6.33
3.33
-3.0
3.67
2.33
5.33
2.0
-2.0
3.67
0.0
6.67
3.67
6.67
4.0
7.33
0.0
3.67
-5.33
1.33
1.33
2.67
4.67
6.33
2.0
6.67
7.67
5.33
0.67
5.33
0.33
-0.33
8.67
2.0
3.0
10.33
4.0
4.0
-0.67
5.0
0.67
1.67
5.33
2.67
2.33
4.0
5.33
2.67
4.33
4.0
-0.67
1.0
8.0
-3.33
0.0
0.67
3.67
6.0
1.0
5.0
0.33
-0.33
2.33
3.67
0.67
1.67
2.0
4.67
3.0
2.0
0.67
3.67
-2.67
-2.0
2.67
4.67
-4.0
-0.33
2.33
3.67
3.0
2.0
-2.33
1.67
-1.33
-2.0
0.67
1.33
0.0
5.67
-3.0
0.67
3.0
-0.33
3.33
1.33
7.0
3.33
4.33
0.0
9.67
-1.0
1.67
5.33
1.67
9.33
10.33
1.67
3.67
2.67
3.0
16.67
9.0
13.0
6.67
8.33
7.67
14.33
20.33
23.67
8.67
8.67
7.0
9.33
13.33
8.0
11.33
22.0
23.67
10.67
24.33
22.33
20.67
12.0
20.0
12.33
16.33
15.0
11.33
22.67
16.67
17.0
13.67
14.67
12.33
17.33
27.67
87.33
131.67
89.67
64.67
9.33
5.67
27.33
24.33
31.33
27.67
23.33
27.0
18.33
6.67
19.67
12.0
15.0
9.33
15.33
27.33
46.33
27.67
17.33
6.67
24.0
21.33
16.0
23.0
10.67
18.67
1.67
10.0
8.0
7.33
12.0
12.33
11.0
11.33
14.33
7.0
23.33
12.67
13.67
17.67
11.33
1.0
3.0
3.33
16.33
5.33
22.33
11.33
14.67
8.33
19.0
4.33
3.33
13.67
-7.0
33.33
13.0
15.0
13.0
19.0
-5.33
20.33
12.33
5.67
11.0
5.33
6.0
9.33
7.0
6.0
8.67
-6.0
7.67
1.0
5.67
7.33
0.67
16.33
6.67
9.67
1.33
0.0
3.67
6.0
3.67
8.33
5.67
16.0
-4.33
0.67
3.67
-2.0
8.67
-7.33
6.0
5.67
12.33
4.67
7.33
3.67
-4.0
2.33
-1.67
7.67
5.0
1.33
-4.0
-2.0
5.33
5.67
12.33
5.33
5.67
1.33
7.33
1.33
0.67
6.33
1.0
4.33
1.0