File: EDX Back Ups and Old Files/Spectra copy 3.3.23/Samples/Low pH SF 25C 14d/7.0.txt
0.0
-39.33
57.67
-7.33
1.33
-1.0
0.0
-0.33
-0.33
-0.33
-0.67
-0.33
1.0
-1.33
-0.67
1.67
1.0
1.0
0.0
2.33
1.33
0.67
5.33
4.33
6.33
-2.0
7.67
3.33
2.33
5.0
-1.0
0.67
8.0
4.67
6.67
2.67
8.0
-2.67
7.0
0.67
3.67
-2.67
1.33
1.67
2.67
3.33
2.0
4.67
6.67
-3.67
6.67
1.33
-1.67
-1.33
5.67
3.0
1.0
-1.67
3.0
3.0
-3.67
3.0
0.67
1.67
4.33
4.67
2.33
5.0
6.33
-0.33
2.33
0.0
5.33
7.0
0.0
1.67
1.0
6.67
0.67
1.0
1.0
2.0
-2.67
3.67
0.33
2.67
9.67
0.67
0.0
-2.33
4.0
3.0
-1.33
-0.33
3.33
0.0
0.67
0.67
2.0
2.67
4.33
4.67
4.0
-1.0
1.67
1.67
3.67
-2.0
1.67
2.33
-4.0
5.67
10.0
-2.33
3.0
-0.33
8.33
12.33
6.0
0.33
10.33
4.0
6.67
6.0
2.67
3.33
14.67
4.33
8.33
0.67
12.67
5.67
6.0
20.67
34.0
27.0
12.67
12.33
14.67
14.33
27.33
32.67
23.67
10.67
16.0
9.33
8.33
13.0
13.33
12.0
27.67
27.67
37.33
39.33
44.67
21.0
27.0
22.33
9.33
8.0
4.33
15.67
5.67
13.0
15.67
21.67
7.33
12.33
24.67
48.33
70.67
63.67
47.67
30.33
61.67
39.33
33.33
35.33
59.67
54.33
42.0
23.33
9.67
18.67
12.0
9.0
6.33
16.33
27.33
19.33
26.67
10.33
10.67
18.0
20.33
20.0
31.0
11.67
4.67
2.67
12.0
5.0
3.33
18.0
17.33
13.0
6.33
5.33
14.0
8.33
1.67
10.67
6.67
9.33
2.0
13.0
6.33
5.33
12.33
4.33
19.33
11.67
24.33
19.0
15.33
11.33
27.67
17.0
17.33
20.0
17.0
12.0
5.0
18.67
10.33
7.33
13.67
11.0
6.33
7.0
0.33
7.0
16.0
4.67
4.0
-0.33
3.0
-7.33
6.33
12.67
7.33
6.67
0.67
12.33
2.0
-0.33
13.0
2.67
-2.67
7.67
13.0
7.67
0.67
-1.33
-1.0
1.67
3.67
7.0
6.67
2.33
0.67
5.33
5.67
2.0
5.33
9.33
6.67
2.0
5.33
3.0
1.0
4.33
4.67
7.33
0.33
7.67
-1.67
-5.67
9.33
0.67
1.33
5.0
0.33
1.0