File: EDX Back Ups and Old Files/Spectra copy 3.3.23/Samples/Low pH SF 25C 14d/7.25.txt
0.0
-20.33
-18.33
-18.33
-1.67
-3.0
0.0
-0.33
-0.33
-0.33
0.33
2.67
1.0
-0.33
0.33
-0.33
1.0
2.0
-2.0
3.33
-2.67
8.67
8.33
2.33
-0.67
-7.0
4.67
4.33
8.33
8.0
0.0
4.67
3.0
3.67
6.67
1.67
4.0
2.33
-2.0
-6.33
1.67
6.33
2.33
1.67
3.67
-1.67
2.0
0.67
9.67
1.33
-0.33
-1.67
-1.67
3.67
0.67
5.0
6.0
8.33
-3.0
3.0
6.33
-4.0
-2.33
-3.33
5.33
1.67
2.33
2.0
9.33
5.67
11.33
0.0
2.33
-2.0
1.0
-2.33
-2.0
9.67
-1.33
-1.0
-1.0
7.0
-0.67
0.67
0.33
2.67
1.67
0.67
-2.0
3.67
7.0
4.0
0.67
-0.33
2.33
0.0
3.67
4.67
-2.0
4.67
6.33
1.67
-2.0
-2.0
-0.33
-0.33
0.67
-1.0
6.67
5.33
3.0
1.67
4.0
-2.33
2.0
-4.33
6.33
2.33
5.0
4.33
6.33
8.0
7.67
1.0
1.67
-1.67
9.67
10.33
5.33
-1.33
5.67
2.67
12.0
17.67
27.0
15.0
11.67
6.33
6.67
13.33
22.33
44.67
25.67
9.67
16.0
16.33
10.33
11.0
14.33
14.0
16.67
41.67
55.33
43.33
42.67
22.0
15.0
25.33
7.33
24.0
15.33
9.67
9.67
17.0
24.67
8.67
16.33
8.33
6.67
48.33
58.67
69.67
51.67
42.33
73.67
61.33
52.33
46.33
57.67
44.33
42.0
9.33
9.67
20.67
19.0
8.0
7.33
26.33
27.33
29.33
25.67
16.33
19.67
15.0
19.33
30.0
29.0
14.67
9.67
9.67
11.0
13.0
18.33
5.0
6.33
7.0
16.33
9.33
11.0
8.33
20.67
4.67
1.67
-4.67
4.0
11.0
5.33
13.33
18.33
8.33
6.33
1.67
6.33
20.0
15.33
-3.67
22.67
7.0
5.33
-1.0
5.0
14.0
10.0
15.67
4.33
16.33
11.67
-2.0
9.33
8.0
7.33
10.0
3.0
1.67
-9.0
-0.33
-7.0
-4.33
10.33
2.67
7.33
7.67
2.67
6.33
4.0
10.67
6.0
5.67
2.33
9.67
13.0
0.67
4.67
10.67
7.0
5.67
-3.33
6.0
6.67
3.33
-3.33
2.33
1.67
-3.0
-0.67
3.33
-1.33
7.0
-4.67
1.0
4.0
8.33
0.67
3.33
-1.67
5.67
1.33
1.33
5.33
-0.33
0.33
6.0
3.33
7.0