File: EDX Back Ups and Old Files/Spectra copy 3.3.23/Samples/Low pH SF 25C 14d/7.5.txt
0.0
12.67
-11.33
-36.33
-5.67
-2.0
1.0
-0.33
0.67
-0.33
0.33
-0.33
0.0
0.67
0.33
1.67
-1.0
0.0
-2.0
-1.67
-1.67
-0.33
5.33
2.33
-0.67
2.0
-0.33
1.33
3.33
2.0
1.0
0.67
8.0
3.67
14.67
-1.33
4.0
5.33
-3.0
0.67
1.67
-0.67
1.33
1.67
-1.33
11.33
5.0
4.67
6.67
7.33
-2.33
0.33
0.33
-0.33
7.67
9.0
3.0
6.33
-2.0
2.0
1.33
3.0
-2.33
2.67
3.33
4.67
2.33
7.0
3.33
0.67
-0.67
6.0
7.33
4.0
-4.0
-2.33
1.0
3.67
0.67
-1.0
-1.0
1.0
1.33
1.67
3.33
0.67
2.67
0.67
0.0
-1.33
4.0
-1.0
3.67
-3.33
4.33
5.0
1.67
-1.33
0.0
3.67
0.33
1.67
1.0
1.0
-2.33
3.67
2.67
-5.0
2.67
6.33
-3.0
4.67
-2.0
2.67
2.0
6.67
2.33
4.33
3.0
10.33
4.33
8.0
7.67
7.0
4.67
3.33
4.67
4.33
7.33
-0.33
12.67
9.67
7.0
16.67
24.0
17.0
11.67
10.33
8.67
8.33
16.33
21.67
33.67
6.67
7.0
0.33
25.33
19.0
23.33
22.0
49.67
27.67
37.33
41.33
38.67
29.0
30.0
28.33
6.33
21.0
9.33
6.67
6.67
17.0
16.67
10.67
20.33
8.33
14.67
29.33
92.67
105.67
129.67
56.33
57.67
95.33
63.33
65.33
95.67
64.33
40.0
29.33
3.67
13.67
20.0
11.0
13.33
20.33
16.33
31.33
26.67
27.33
18.67
16.0
22.33
20.0
18.0
9.67
7.67
11.67
15.0
15.0
-4.67
14.0
11.33
20.0
14.33
17.33
10.0
13.33
16.67
9.67
2.67
11.33
21.0
19.0
10.33
10.33
15.33
6.33
-2.67
9.67
10.33
13.0
13.33
1.33
10.67
9.0
9.33
3.0
9.0
4.0
8.0
-1.33
5.33
17.33
3.67
8.0
2.33
6.0
-1.67
10.0
1.0
8.67
-3.0
9.67
-3.0
1.67
9.33
1.67
3.33
15.67
3.67
6.33
4.0
6.67
10.0
-3.33
-0.67
9.67
11.0
1.67
-0.33
10.67
1.0
6.67
5.67
4.0
3.67
0.33
2.67
2.33
10.67
8.0
2.33
5.33
2.67
3.0
4.33
2.0
4.0
1.33
-2.33
1.33
6.33
-1.33
6.33
-1.67
-3.67
-3.33
2.33
1.0
2.33
-3.0