File: EDX Back Ups and Old Files/Spectra copy 3.3.23/Samples/Low pH SF 25C 14d/9.0.txt
0.0
18.67
17.67
-6.33
-7.67
-3.0
-1.0
-0.33
-0.33
0.67
-0.67
0.67
1.0
-1.33
1.33
0.67
0.0
4.0
2.0
-0.67
5.33
11.67
9.33
3.33
3.33
-3.0
1.67
9.33
5.33
5.0
2.0
1.67
5.0
4.67
4.67
1.67
4.0
3.33
5.0
-6.33
3.67
7.33
4.33
3.67
0.67
-2.67
5.0
0.67
6.67
4.33
1.67
2.33
9.33
6.67
2.67
0.0
7.0
0.33
7.0
1.0
1.33
4.0
2.67
2.67
4.33
-0.33
1.33
2.0
8.33
0.67
2.33
6.0
12.33
1.0
-1.0
2.67
-1.0
-0.33
0.67
1.0
2.0
1.0
5.33
0.67
2.33
2.67
2.67
2.67
-3.0
-2.33
5.0
2.0
7.67
-1.33
-1.67
6.0
4.67
-1.33
-3.0
4.67
-0.67
3.67
-2.0
-5.0
-3.33
3.67
-2.33
2.0
4.67
1.33
-2.0
1.67
-2.0
1.67
1.0
-1.33
3.33
2.33
3.0
-1.67
4.33
3.0
7.67
9.0
4.67
10.33
8.67
5.33
7.33
10.67
5.67
0.67
8.0
14.67
34.0
42.0
28.67
23.33
11.67
12.33
31.33
42.67
36.67
14.67
27.0
20.33
10.33
22.0
13.33
14.0
22.67
13.67
24.33
34.33
17.67
18.0
7.0
15.33
12.33
11.0
11.33
14.67
19.67
9.0
21.67
9.67
1.33
5.33
30.67
48.33
108.67
80.67
42.67
27.33
13.67
30.33
31.33
35.33
43.67
43.33
21.0
10.33
8.67
13.67
19.0
0.0
9.33
24.33
24.33
36.33
31.67
11.33
14.67
24.0
25.33
22.0
12.0
25.67
17.67
20.67
12.0
9.0
3.33
14.0
9.33
15.0
12.33
3.33
4.0
13.33
12.67
6.67
6.67
2.33
13.0
10.0
0.33
19.33
13.33
19.33
30.33
11.67
19.33
6.0
7.33
-3.67
7.67
4.0
10.33
16.0
15.0
7.0
10.0
4.67
14.33
-0.67
9.67
-1.0
0.33
12.0
7.33
-1.0
6.0
1.67
-4.0
0.67
8.0
1.67
-0.67
-4.33
3.33
2.67
1.67
13.33
5.0
12.67
1.0
0.67
1.33
13.67
5.0
5.67
-2.33
-0.33
7.0
6.67
-0.33
5.0
2.67
6.33
2.67
2.33
3.67
1.0
5.33
0.33
0.67
6.0
6.33
-4.0
6.0
5.33
7.67
-0.67
1.33
3.67
7.33
-3.67
4.33
3.67
1.33
-4.0
1.33
3.0