File: EDX Back Ups and Old Files/Spectra copy 3.3.23/Samples/High pH SF Ref/10.75.txt
0.0
69.0
-24.67
15.67
-8.0
2.67
-0.33
-0.33
0.0
-0.33
-0.33
0.0
0.0
0.33
1.33
-0.33
3.33
3.33
-1.33
3.33
-1.0
2.33
8.67
2.33
11.33
-4.67
3.33
0.67
-4.67
9.67
2.67
2.0
4.67
6.0
-1.67
8.0
1.67
3.0
3.0
5.0
0.67
2.0
4.33
-3.0
3.0
-1.0
2.33
0.0
1.67
0.33
3.0
-1.33
-1.33
7.0
2.0
3.0
3.33
3.33
6.0
-3.0
3.0
3.0
-3.67
-5.33
7.33
-0.67
0.0
-3.33
3.0
-2.33
-1.33
4.33
0.0
-0.33
5.67
1.0
-4.33
6.0
-2.33
3.67
3.67
-2.67
-4.67
3.33
-7.33
1.67
-0.33
1.67
0.67
-1.0
-3.0
-1.67
-1.0
-0.33
3.67
-3.0
-3.0
-1.0
-2.0
-2.0
-7.33
-3.0
-2.33
-3.0
0.0
-4.33
-7.0
-9.0
-6.67
-1.33
-4.0
-2.33
3.67
-3.33
6.67
24.33
42.0
21.0
11.67
0.67
3.67
-4.0
-2.67
-2.33
-5.33
-2.67
-2.0
-4.33
-1.33
0.33
-0.33
-1.67
0.67
8.33
3.0
-5.67
-5.33
-2.67
-2.0
-1.0
-1.0
5.67
2.0
2.67
2.67
-3.67
9.67
19.33
24.67
21.67
-0.67
5.67
12.0
3.67
21.67
6.33
16.0
5.33
6.0
17.67
-0.33
8.33
15.67
2.33
4.33
14.33
4.0
1.0
18.0
18.0
10.67
16.0
2.67
6.33
21.33
14.0
16.33
13.33
10.67
1.0
16.0
18.0
0.33
33.67
34.33
37.0
53.67
90.67
104.67
101.0
54.33
21.67
6.0
11.67
4.33
22.0
11.0
8.33
15.67
16.67
17.33
9.33
6.67
25.0
4.33
16.0
15.33
10.0
6.67
-3.67
10.67
15.33
25.67
0.33
0.0
-4.33
22.0
34.0
25.0
25.0
-7.0
1.0
-0.67
8.0
9.33
-5.33
2.33
7.33
9.67
-2.0
7.67
1.0
-4.67
-2.0
6.0
13.0
5.67
10.67
-6.33
-7.33
-2.0
4.33
2.33
3.0
5.0
-0.67
10.0
2.33
2.67
8.33
2.67
0.33
1.33
2.67
1.33
7.33
9.0
1.33
13.0
-1.0
3.0
-0.33
3.33
3.67
-4.0
-5.67
2.0
1.0
2.33
-0.33
3.67
-3.33
3.67
2.0
5.33
4.67
4.67
-4.0
-0.67
-1.67
2.67
1.67
-2.0
-8.67
4.33
7.0
-3.0
0.33
9.33
-2.67
3.67
6.33
0.67
0.67