File: EDX Back Ups and Old Files/Spectra copy 3.3.23/Samples/High pH SF Ref/11.25.txt
0.0
-44.0
-44.67
-2.33
9.0
1.67
1.67
0.67
0.0
-0.33
0.67
0.0
0.0
-0.67
0.33
-0.33
0.33
-0.67
-0.33
1.33
3.0
-0.67
1.67
0.33
-0.67
-1.67
3.33
2.67
0.33
1.67
0.67
1.0
8.67
6.0
-2.67
5.0
3.67
2.0
3.0
5.0
7.67
8.0
5.33
-5.0
6.0
5.0
6.33
1.0
-3.33
10.33
5.0
1.67
4.67
3.0
1.0
0.0
5.33
0.33
-3.0
5.0
-1.0
-1.0
1.33
-3.33
1.33
2.33
-2.0
-0.33
4.0
-0.33
3.67
-1.67
-2.0
-1.33
6.67
-4.0
-6.33
-2.0
-0.33
0.67
-3.33
-1.67
-1.67
-1.67
-6.33
4.67
-0.33
-2.33
-0.33
0.0
1.0
-0.67
2.0
-1.33
1.67
-1.0
2.0
-2.0
-4.0
1.0
-1.33
5.0
-2.33
-3.0
3.0
-3.33
-10.0
-11.0
-1.67
-3.33
-5.0
-5.33
-1.33
3.67
6.67
25.33
41.0
32.0
7.67
2.67
7.67
-1.0
0.33
-8.33
1.67
-2.67
0.0
-2.33
3.67
-7.67
-1.33
-7.67
2.67
4.33
6.0
2.33
1.67
0.33
6.0
-2.0
-2.0
-2.33
1.0
9.67
4.67
-5.67
8.67
18.33
28.67
24.67
10.33
7.67
5.0
5.67
4.67
12.33
8.0
11.33
1.0
7.67
12.67
6.33
10.67
12.33
5.33
11.33
4.0
7.0
-2.0
1.0
17.67
7.0
3.67
11.33
9.33
7.0
12.33
14.33
5.67
-1.0
5.0
14.0
7.33
20.67
31.33
40.0
53.67
115.67
127.67
101.0
54.33
35.67
6.0
-7.33
14.33
17.0
16.0
9.33
9.67
7.67
6.33
15.33
-1.33
17.0
4.33
4.0
11.33
2.0
8.67
22.33
6.67
9.33
-2.33
2.33
-7.0
20.67
24.0
20.0
23.0
23.0
18.0
2.0
0.33
14.0
-0.67
-5.33
12.33
4.33
7.67
18.0
5.67
13.0
-6.67
-7.0
8.0
-2.0
-11.33
10.67
-5.33
0.67
-7.0
-8.67
0.33
4.0
0.0
-4.67
10.0
12.33
6.67
7.33
3.67
7.33
13.33
5.67
0.33
0.33
10.0
2.33
8.0
-5.0
4.0
9.67
0.33
10.67
2.0
-2.67
0.0
-2.0
3.33
-3.33
4.67
-1.33
-0.33
1.0
5.33
6.67
4.67
-2.0
-1.67
0.33
2.67
3.67
-4.0
-8.67
5.33
0.0
-1.0
-0.67
-0.67
0.33
-6.33
1.33
5.67
1.67