File: EDX Back Ups and Old Files/Spectra copy 3.3.23/Samples/High pH SF Ref/11.5.txt
0.0
-82.0
-39.67
4.67
-6.0
-1.33
1.67
-0.33
0.0
-0.33
-0.33
0.0
1.0
0.33
-0.67
-1.33
1.33
-0.67
-2.33
-1.67
5.0
-2.67
-0.33
-5.67
0.33
0.33
-0.67
4.67
-0.67
5.67
3.67
-2.0
-1.33
2.0
-1.67
1.0
-3.33
0.0
0.0
-1.0
-0.33
2.0
5.33
6.0
9.0
-1.0
-0.67
6.0
-0.33
3.33
-4.0
0.67
2.67
2.0
-3.0
1.0
5.33
-0.67
4.0
0.0
1.0
-2.0
0.33
-2.33
1.33
6.33
0.0
-3.33
1.0
2.67
-0.33
1.33
-5.0
-2.33
3.67
0.0
-3.33
-3.0
-1.33
0.67
3.67
3.33
-3.67
0.33
-3.33
0.67
-0.33
0.67
-0.33
-2.0
0.0
-2.67
-3.0
-1.33
-1.33
3.0
8.0
2.0
1.0
-1.0
-4.33
0.0
5.67
-6.0
-1.0
-3.33
-6.0
-8.0
-2.67
-0.33
1.0
-4.33
7.67
8.67
7.67
18.33
38.0
46.0
12.67
4.67
6.67
2.0
1.33
-2.33
-6.33
-8.67
-5.0
-8.33
-0.33
-7.67
-1.33
-1.67
-4.33
7.33
1.0
-3.67
1.67
-1.67
-3.0
-3.0
20.0
5.67
2.0
2.67
5.67
-1.67
7.67
21.33
24.67
17.67
7.33
4.67
5.0
7.67
3.67
8.33
14.0
-2.67
1.0
3.67
4.67
12.33
1.67
8.33
5.33
15.33
-5.0
5.0
5.0
18.0
10.67
5.0
11.67
5.33
12.33
4.0
10.33
11.33
-3.33
7.0
11.0
15.0
7.33
29.67
20.33
25.0
70.67
110.67
127.67
125.0
80.33
34.67
15.0
12.67
6.33
15.0
15.0
22.33
6.67
20.67
1.33
8.33
2.67
12.0
17.33
8.0
13.33
3.0
6.67
1.33
2.67
3.33
6.67
7.33
5.0
16.67
24.0
42.0
22.0
23.0
0.0
19.0
7.33
16.0
6.33
5.67
4.33
15.33
12.67
6.0
6.67
4.0
-0.67
10.0
6.0
3.0
-7.33
2.67
-15.33
-5.33
0.0
11.33
6.33
20.0
1.0
-6.67
6.0
-0.67
4.67
-2.67
2.67
3.33
-1.67
8.67
3.33
9.33
9.0
7.33
9.0
-3.0
7.0
2.67
1.33
-1.33
5.0
4.33
5.0
-5.0
8.33
1.67
6.67
-1.33
5.67
0.0
3.33
7.67
4.67
-7.0
8.33
-1.67
5.67
4.67
-4.0
-1.67
4.33
7.0
4.0
1.33
5.33
-3.67
0.67
3.33
1.67
-0.33