File: EDX Back Ups and Old Files/Spectra copy 3.3.23/Samples/High pH SF Ref/12.25.txt
0.0
71.0
-14.67
-17.33
-3.0
-0.33
-0.33
-0.33
0.0
0.67
-0.33
0.0
1.0
1.33
-0.67
-0.33
1.33
-0.67
1.67
1.33
0.0
-0.67
-1.33
3.33
1.33
-1.67
5.33
-1.33
6.33
5.67
1.67
-4.0
2.67
6.0
-2.67
-2.0
4.67
0.0
1.0
0.0
-3.33
-1.0
1.33
-4.0
1.0
-1.0
6.33
-1.0
-1.33
2.33
-6.0
7.67
3.67
0.0
0.0
3.0
-3.67
-0.67
-2.0
2.0
1.0
2.0
5.33
-6.33
4.33
6.33
-3.0
-6.33
3.0
3.67
-0.33
0.33
-5.0
-0.33
3.67
-3.0
-2.33
-3.0
-0.33
-1.33
-2.33
2.33
-2.67
2.33
-7.33
-2.33
3.67
1.67
-2.33
3.0
-4.0
-1.67
-4.0
3.67
0.67
0.0
0.0
1.0
-3.0
-3.0
-0.33
5.0
0.67
-2.0
0.0
-2.33
2.0
-9.0
4.33
-1.33
2.0
-0.33
-0.33
0.67
-0.33
10.33
25.0
21.0
10.67
-2.33
7.67
-3.0
-0.67
2.67
-5.33
-0.67
-5.0
-8.33
5.67
7.33
1.67
3.33
1.67
4.33
-1.0
9.33
5.67
1.33
3.0
0.0
9.0
1.67
15.0
7.67
10.67
8.33
6.67
35.33
46.67
22.67
24.33
9.67
15.0
12.67
2.67
-0.67
4.0
4.33
0.0
-7.33
10.67
1.33
-3.33
1.33
-4.67
2.33
3.0
7.0
2.0
11.0
13.67
4.0
5.67
2.33
10.33
3.0
17.33
-3.67
-0.33
1.0
4.0
8.0
5.33
9.67
12.33
33.0
70.67
110.67
148.67
137.0
56.33
35.67
11.0
9.67
5.33
5.0
8.0
9.33
-7.33
14.67
18.33
12.33
-1.33
17.0
20.33
11.0
10.33
7.0
3.67
-5.67
-4.33
1.33
3.67
2.33
-1.0
-2.33
6.0
6.0
14.0
9.0
-12.0
7.0
-5.67
5.0
7.33
8.67
7.33
4.33
-1.33
17.0
-0.33
4.0
7.33
4.0
1.0
12.0
8.67
-0.33
3.67
10.67
-3.0
9.33
0.33
14.0
-7.0
-3.67
6.0
7.33
12.67
1.33
7.67
2.33
-1.67
3.67
2.33
1.33
0.0
7.33
6.0
-5.0
12.0
0.67
-0.67
2.67
-2.0
-1.67
3.0
-1.0
2.33
4.67
-0.33
0.67
0.67
4.0
4.33
3.67
4.67
-1.0
2.33
4.33
-3.33
1.67
-6.0
-2.67
5.33
4.0
4.0
0.33
1.33
-0.67
0.67
-2.67
0.67
-1.33