File: EDX Back Ups and Old Files/Spectra copy 3.3.23/Samples/High pH SF Ref/6.0.txt
0.0
-78.0
21.33
-7.33
-8.0
-2.33
0.67
-0.33
0.0
-0.33
0.67
0.0
0.0
1.33
0.33
-1.33
0.33
-0.67
5.67
-0.67
2.0
2.33
-3.33
9.33
7.33
3.33
4.33
-0.33
2.33
2.67
12.67
8.0
0.67
3.0
1.33
0.0
9.67
5.0
4.0
3.0
4.67
6.0
5.33
2.0
2.0
0.0
2.33
7.0
5.67
1.33
0.0
2.67
0.67
9.0
3.0
6.0
3.33
3.33
5.0
-3.0
7.0
1.0
7.33
-3.33
-0.67
5.33
2.0
-4.33
1.0
7.67
-0.33
2.33
2.0
0.67
8.67
0.0
1.67
2.0
1.67
-1.33
2.67
-1.67
-1.67
2.33
-3.33
4.67
0.67
0.67
1.67
4.0
0.0
-5.67
1.0
1.67
-0.33
-3.0
0.0
-1.0
1.0
0.0
-6.33
-1.0
-0.33
-4.0
-4.0
-2.33
-4.0
-3.0
-3.67
6.67
-1.0
-1.33
-1.33
-1.33
-3.33
-0.67
18.0
8.0
1.67
0.67
-1.33
-1.0
-4.67
-6.33
-8.33
-10.67
-5.0
-4.33
3.67
-9.67
-7.33
-2.67
0.67
2.33
-3.0
-1.67
1.67
0.33
0.0
-6.0
0.0
-5.33
5.0
-4.33
1.67
-0.67
4.67
11.33
16.67
8.67
6.33
5.67
8.0
5.67
0.67
9.33
1.0
3.33
6.0
4.67
-3.33
9.33
6.67
7.33
15.33
11.33
4.0
2.0
13.0
3.0
9.67
0.0
14.67
14.33
5.33
8.0
15.33
5.33
3.67
8.0
15.0
5.0
18.33
17.67
23.33
29.0
47.67
50.67
66.67
63.0
45.33
32.67
3.0
0.67
3.33
5.0
21.0
7.33
13.67
8.67
10.33
12.33
9.67
16.0
16.33
13.0
8.33
13.0
8.67
4.33
1.67
4.33
16.67
10.33
5.0
7.67
23.0
13.0
28.0
11.0
11.0
21.0
5.33
15.0
-4.67
-5.33
6.33
5.33
1.67
23.0
13.67
4.0
3.33
5.0
12.0
-2.0
-4.33
6.67
-12.33
7.67
-7.0
18.33
8.33
3.0
7.0
-5.67
16.0
8.33
12.67
6.33
7.67
8.33
11.33
4.67
1.33
0.33
13.0
10.33
4.0
-4.0
6.0
3.67
8.33
3.67
-7.0
-0.67
1.0
-1.0
4.33
0.67
0.67
-2.33
4.67
3.0
-2.67
5.67
0.67
-2.0
5.33
3.33
-0.33
-1.33
10.0
-4.67
2.33
2.0
4.0
10.33
3.33
7.33
3.67
3.33
-0.33
-0.33