File: EDX Back Ups and Old Files/Spectra copy 3.3.23/Samples/High pH SF Ref/7.25.txt
0.0
-77.0
-77.67
22.67
4.0
0.67
1.67
-0.33
1.0
0.67
-0.33
0.0
0.0
-0.67
2.33
0.67
1.33
-2.67
-2.33
3.33
2.0
3.33
-0.33
2.33
6.33
-1.67
8.33
6.67
5.33
7.67
-0.33
1.0
-1.33
5.0
5.33
5.0
0.67
5.0
11.0
-3.0
4.67
1.0
4.33
-6.0
7.0
0.0
-1.67
0.0
-1.33
10.33
1.0
-0.33
4.67
8.0
2.0
0.0
6.33
3.33
1.0
5.0
1.0
2.0
4.33
-4.33
-3.67
-0.67
2.0
-0.33
0.0
-2.33
2.67
-1.67
-7.0
1.67
1.67
-6.0
-2.33
1.0
3.67
1.67
3.67
-2.67
0.33
3.33
-3.33
1.67
0.67
2.67
-1.33
-2.0
-1.0
-1.67
-3.0
3.67
-3.33
2.0
4.0
-2.0
-4.0
-4.0
-2.33
5.0
-1.33
1.0
-2.0
-0.33
-3.0
-9.0
-3.67
-3.33
-5.0
-7.33
0.67
-1.33
3.67
11.33
11.0
12.0
3.67
0.67
-0.33
-1.0
-3.67
-7.33
-3.33
-5.67
-7.0
-1.33
-1.33
2.33
2.67
-0.67
-0.33
2.33
1.0
0.33
-3.33
-5.67
1.0
1.0
0.0
-1.33
0.0
4.67
1.67
-7.67
2.67
15.33
21.67
11.67
7.33
-0.33
18.0
0.67
4.67
8.33
13.0
5.33
5.0
4.67
0.67
-1.67
3.67
5.33
14.33
21.33
5.0
10.0
22.0
13.0
15.67
7.0
6.67
9.33
13.33
10.0
10.33
5.33
5.67
10.0
0.0
20.0
4.33
22.67
25.33
23.0
33.67
76.67
76.67
60.0
26.33
31.67
15.0
8.67
1.33
18.0
13.0
-3.67
0.67
6.67
8.33
14.33
15.67
11.0
11.33
24.0
12.33
0.0
1.67
16.33
2.67
16.33
8.67
7.33
11.0
24.67
19.0
20.0
32.0
12.0
5.0
9.0
-1.67
5.0
-6.67
9.67
13.33
14.33
-4.33
13.0
14.67
19.0
4.33
1.0
7.0
10.0
9.67
4.67
-4.33
-11.33
4.0
9.33
14.33
2.0
3.0
-6.67
10.0
-1.67
1.67
12.33
0.67
1.33
4.33
-4.33
-2.67
-0.67
3.0
10.33
14.0
7.0
4.0
0.67
9.33
1.67
4.0
1.33
4.0
-1.0
2.33
5.67
5.67
-2.33
-3.33
12.0
-2.67
0.67
6.67
1.0
8.33
-2.67
-2.33
-4.33
-4.0
-0.67
1.33
-2.0
-1.0
3.33
5.33
2.33
-1.33
2.33
0.67
-3.33