File: EDX Back Ups and Old Files/Spectra copy 3.3.23/Samples/High pH SF Ref/8.0.txt
0.0
27.0
-11.67
29.67
-5.0
8.67
-0.33
-0.33
0.0
-0.33
-0.33
1.0
1.0
1.33
0.33
0.67
-1.67
3.33
2.67
-1.67
15.0
2.33
-0.33
6.33
0.33
-5.67
3.33
7.67
4.33
2.67
0.67
-3.0
3.67
10.0
-0.67
5.0
3.67
1.0
8.0
4.0
-2.33
2.0
2.33
-5.0
5.0
3.0
6.33
5.0
-0.33
6.33
-5.0
2.67
0.67
8.0
0.0
3.0
2.33
1.33
1.0
0.0
1.0
5.0
3.33
-3.33
0.33
1.33
0.0
-0.33
2.0
2.67
-1.33
3.33
-4.0
1.67
3.67
5.0
-2.33
1.0
1.67
-0.33
0.67
3.33
-3.67
0.33
-0.33
2.67
3.67
-0.33
1.67
-2.0
-1.0
-2.67
-4.0
-0.33
-3.33
-1.0
0.0
-1.0
0.0
-1.0
-4.33
-2.0
-2.33
-2.0
2.0
-4.33
-7.0
-7.0
-1.67
-2.33
-4.0
-3.33
-0.33
-3.33
-0.33
11.33
33.0
9.0
-5.33
3.67
5.67
5.0
-1.67
1.67
-6.33
-5.67
-5.0
-6.33
2.67
2.33
-6.33
-6.67
-3.33
13.33
1.0
-1.67
-2.33
-4.67
-10.0
-2.0
1.0
-1.33
0.0
7.67
2.67
-0.67
9.67
16.33
16.67
19.67
7.33
6.67
12.0
9.67
5.67
0.33
6.0
8.33
5.0
5.67
8.67
0.33
5.67
6.33
0.33
19.33
13.0
4.0
11.0
7.0
6.67
2.0
4.67
-1.67
10.33
2.0
12.33
7.33
3.67
6.0
7.0
10.0
4.33
9.67
23.33
30.0
23.67
74.67
88.67
78.0
62.33
22.67
6.0
4.67
2.33
14.0
13.0
-2.67
9.67
23.67
5.33
12.33
2.67
8.0
11.33
10.0
19.33
-2.0
13.67
-2.67
10.67
17.33
7.67
11.33
-1.0
7.67
9.0
30.0
17.0
23.0
7.0
17.0
2.33
17.0
8.33
7.67
10.33
8.33
6.67
19.0
11.67
8.0
7.33
12.0
7.0
2.0
-6.33
8.67
-1.33
-2.33
0.0
1.33
2.33
9.0
-9.0
-3.67
3.0
4.33
-3.33
3.33
18.67
19.33
4.33
3.67
-2.67
0.33
0.0
18.33
18.0
-1.0
4.0
4.67
6.33
4.67
-1.0
3.33
7.0
-2.0
6.33
8.67
6.67
0.67
9.67
14.0
-0.67
9.67
-2.33
-3.0
3.33
-5.67
-2.33
0.67
2.0
1.33
4.33
8.0
6.0
6.33
2.33
-2.67
6.67
5.33
3.67
0.67