File: EDX Back Ups and Old Files/Spectra copy 3.3.23/Samples/High pH SF Ref/8.25.txt
0.0
-64.0
-33.67
-6.33
-8.0
4.67
-0.33
0.67
0.0
-0.33
-0.33
0.0
0.0
0.33
0.33
0.67
0.33
-4.67
2.67
12.33
0.0
1.33
5.67
5.33
2.33
2.33
-1.67
5.67
-1.67
5.67
-1.33
-1.0
5.67
2.0
3.33
2.0
5.67
1.0
4.0
5.0
3.67
2.0
4.33
-4.0
9.0
-2.0
2.33
5.0
0.67
6.33
-6.0
-1.33
3.67
-1.0
6.0
-2.0
4.33
-0.67
3.0
-1.0
1.0
3.0
9.33
-3.33
-0.67
7.33
-1.0
-3.33
1.0
-0.33
0.67
-2.67
-2.0
-4.33
4.67
-3.0
-1.33
2.0
-0.33
1.67
2.67
2.33
-1.67
6.33
-4.33
1.67
-1.33
-0.33
0.67
1.0
-2.0
-0.67
-2.0
0.67
-3.33
-2.0
3.0
1.0
-4.0
2.0
-4.33
1.0
-2.33
-4.0
0.0
-3.33
-6.0
-7.0
-2.67
-3.33
-9.0
-9.33
1.67
6.67
-6.33
1.33
24.0
16.0
11.67
6.67
3.67
-3.0
3.33
-2.33
-10.33
-14.67
-10.0
-7.33
-0.33
-2.67
4.67
-5.67
-5.33
2.33
7.0
0.33
-1.33
-5.67
-7.0
-2.0
2.0
2.67
2.0
2.67
-0.33
14.33
10.67
19.33
15.67
22.67
-4.67
0.67
11.0
5.67
4.67
-4.67
5.0
-1.67
5.0
5.67
5.67
16.33
3.67
2.33
14.33
12.33
3.0
3.0
12.0
-5.0
-0.33
7.0
13.67
7.33
17.33
5.0
12.33
16.33
-0.33
-3.0
5.0
20.0
1.33
15.67
35.33
24.0
42.67
67.67
67.67
56.0
43.33
22.67
7.0
9.67
0.33
11.0
20.0
13.33
11.67
16.67
17.33
-4.67
8.67
14.0
4.33
13.0
5.33
13.0
14.67
7.33
26.67
10.33
1.67
-0.67
11.0
26.67
30.0
19.0
29.0
24.0
11.0
0.0
6.33
10.0
1.33
9.67
7.33
6.33
4.67
6.0
8.67
2.0
-8.67
0.0
8.0
1.0
0.67
13.67
5.67
-1.33
1.0
12.33
8.33
11.0
5.0
1.33
15.0
8.33
2.67
9.33
-2.33
4.33
1.33
5.67
-1.67
3.33
10.0
0.33
7.0
-2.0
4.0
6.67
-0.67
4.67
4.0
0.33
6.0
-6.0
4.33
3.67
13.67
-4.33
-3.33
-2.0
4.33
6.67
-1.33
0.0
1.33
0.33
1.67
1.67
2.0
8.33
-1.67
5.0
4.0
10.33
5.33
-1.67
-0.33
-2.67
0.67
-0.33