File: EDX Back Ups and Old Files/Spectra copy 3.3.23/Samples/High pH SF Ref/9.25.txt
0.0
22.0
15.33
1.67
9.0
-0.33
-0.33
-0.33
0.0
-0.33
-0.33
0.0
2.0
0.33
1.33
-0.33
0.33
1.33
-1.33
3.33
4.0
9.33
-0.33
2.33
0.33
-1.67
2.33
2.67
-0.67
1.67
3.67
-4.0
2.67
7.0
2.33
5.0
8.67
0.0
7.0
2.0
2.67
7.0
5.33
4.0
2.0
1.0
4.33
1.0
-3.33
-0.67
5.0
7.67
1.67
2.0
-1.0
-1.0
6.33
-0.67
3.0
4.0
1.0
4.0
-3.67
-4.33
6.33
6.33
1.0
1.67
-2.0
-2.33
-2.33
-1.67
1.0
0.67
7.67
2.0
-0.33
-3.0
2.67
3.67
4.67
-2.67
-0.67
1.33
-3.33
4.67
-4.33
0.67
1.67
-4.0
0.0
-0.67
-1.0
-1.33
-3.33
1.0
4.0
-1.0
1.0
0.0
-5.33
3.0
-6.33
1.0
2.0
-3.33
-3.0
-10.0
-0.67
-5.33
-6.0
-4.33
2.67
-1.33
-0.33
14.33
29.0
12.0
0.67
-1.33
-1.33
-4.0
0.33
-6.33
-1.33
-7.67
1.0
1.67
-1.33
-3.67
3.67
-11.67
4.67
2.33
-5.0
1.33
0.67
-1.67
4.0
0.0
3.0
0.67
-3.0
11.67
8.67
-3.67
2.67
20.33
14.67
4.67
1.33
-0.33
4.0
2.67
6.67
9.33
2.0
7.33
6.0
0.67
8.67
7.33
6.67
2.33
4.33
11.33
12.0
3.0
3.0
11.0
16.67
8.0
8.67
8.33
11.33
10.0
14.33
16.33
5.67
3.0
11.0
10.0
7.33
15.67
34.33
25.0
49.67
83.67
93.67
108.0
51.33
31.67
13.0
-1.33
6.33
11.0
12.0
11.33
4.67
7.67
9.33
0.33
3.67
13.0
-1.67
20.0
13.33
3.0
5.67
1.33
3.67
7.33
12.67
10.33
9.0
16.67
25.0
14.0
28.0
3.0
11.0
2.0
-1.67
3.0
0.33
3.67
14.33
10.33
13.67
10.0
8.67
11.0
8.33
-1.0
16.0
1.0
9.67
8.67
1.67
10.67
1.0
7.33
8.33
2.0
3.0
2.33
12.0
10.33
4.67
8.33
9.67
4.33
8.33
-1.33
6.33
4.33
1.0
0.33
20.0
-4.0
3.0
5.67
1.33
2.67
2.0
-5.67
-5.0
1.0
8.33
-0.33
8.67
8.67
6.67
2.0
4.33
7.67
-1.33
-2.0
7.33
-5.67
-0.33
6.67
0.0
1.33
8.33
2.0
-3.0
5.33
0.33
-4.67
-4.33
11.33
0.67
-4.33