File: EDX Back Ups and Old Files/Spectra copy 3.3.23/Samples/High pH SF 60C 4d/11.75.txt
0.0
-97.67
-58.67
42.33
7.0
-1.67
1.0
-0.67
-0.67
1.67
-0.33
0.67
-0.33
-0.67
0.67
1.67
-0.67
4.0
0.33
-2.0
-0.33
0.0
-0.67
6.67
0.67
-5.67
-3.0
4.0
0.0
-0.33
0.0
1.33
-7.0
-1.0
-2.67
5.67
0.0
9.0
0.33
6.33
-3.67
1.67
1.33
-2.0
-3.0
-2.33
-0.33
2.0
-0.33
4.67
-1.33
1.0
-0.67
-0.33
6.33
-2.33
-1.0
0.33
-1.33
3.33
-1.67
-1.0
-3.67
0.67
-1.67
-0.67
-0.67
-5.67
0.67
2.0
1.33
-5.0
-2.33
-2.67
-1.0
-4.0
1.33
-1.0
1.0
0.0
0.33
-0.33
2.33
-2.0
0.67
-3.0
-1.33
-2.67
2.67
-0.33
0.33
0.0
-0.33
-1.33
-3.33
1.0
-3.33
-1.0
-3.0
-4.0
-4.33
-6.67
-2.0
1.0
-3.67
-3.67
3.33
-3.67
-2.33
-0.67
-7.67
-2.33
-3.67
4.0
-3.33
0.33
-1.33
-6.67
-8.0
-2.67
-7.0
-4.67
-3.67
-7.67
-1.67
-3.0
-5.0
4.0
-4.33
2.67
-7.33
-10.0
-1.67
-1.0
-7.33
-3.33
-6.67
-3.0
-16.67
-6.67
-4.33
0.33
-4.33
-7.0
-5.0
-6.67
0.67
14.0
47.0
25.33
8.67
3.0
-8.67
-9.67
-1.0
2.0
6.67
-6.67
-1.67
-7.0
6.67
6.33
-0.67
12.33
0.33
6.33
3.33
0.33
4.0
-5.33
-6.67
2.0
-0.33
13.33
7.0
10.67
2.67
4.0
5.67
1.0
0.0
1.67
6.33
13.0
17.67
50.33
129.33
216.67
289.33
225.67
89.0
28.33
4.67
11.0
3.0
6.67
14.33
9.0
3.0
-4.33
8.0
12.67
4.67
-7.67
7.67
1.67
13.67
11.0
14.0
23.0
8.0
5.0
2.0
6.67
-2.33
-3.33
11.0
6.0
-0.33
5.67
-0.67
-5.33
4.67
11.0
9.67
0.67
8.33
4.33
12.67
9.0
12.67
13.67
3.0
1.67
-1.33
0.0
-3.0
11.33
-0.67
-1.67
-9.33
-10.0
-6.67
8.33
-7.33
3.67
-5.67
16.67
10.0
11.33
13.0
4.33
2.33
-1.0
5.33
2.0
-1.33
7.0
-3.67
-5.67
4.0
0.33
3.33
-4.67
0.33
3.67
-1.33
3.67
10.33
12.67
9.67
7.67
4.67
6.0
8.67
-5.67
1.0
-1.33
-4.67
-2.0
1.33
2.33
6.33
-0.33
1.33
3.67
6.33
0.33
-2.33
5.33
1.67
-5.0
1.67
2.0