File: EDX Back Ups and Old Files/Spectra copy 3.3.23/Samples/High pH SF 60C 4d/12.0.txt
0.0
-95.67
3.33
3.33
-12.0
5.33
-1.0
0.33
-0.67
0.67
1.67
-0.33
0.67
0.33
-0.33
-0.33
2.33
-1.0
0.33
3.0
3.67
0.0
-10.67
2.67
3.67
1.33
2.0
4.0
2.0
4.67
-4.0
-0.67
4.0
-1.0
-0.67
14.67
2.0
2.0
12.33
6.33
8.33
2.67
6.33
12.0
6.0
-0.33
6.67
6.0
-0.33
2.67
4.67
-2.0
2.33
1.67
8.33
3.67
2.0
1.33
-2.33
-0.67
-0.67
0.0
1.33
5.67
-3.67
1.33
-2.67
1.33
3.67
1.0
5.33
1.0
1.67
-2.67
1.0
-1.0
-3.67
1.0
4.0
-1.0
2.33
0.67
1.33
0.0
-3.33
-3.0
-0.33
-2.67
0.67
0.67
0.33
-1.0
-7.33
4.67
-0.33
-4.0
-3.33
0.0
-2.0
-4.0
-1.33
-2.67
-6.0
0.0
0.33
-7.67
-5.67
-5.67
3.67
-1.67
-3.67
-4.33
-5.67
-8.0
-5.33
-1.67
-3.33
-4.67
-11.0
-5.67
-1.0
-6.67
-11.67
-12.67
-4.67
-3.0
-7.0
-9.0
-1.33
-1.33
-5.33
-13.0
-8.67
-9.0
-10.33
1.67
-4.67
0.0
-7.67
-7.67
-15.33
-2.67
-5.33
-9.0
2.0
-1.67
0.67
25.0
37.0
21.33
21.67
4.0
-2.67
2.33
-6.0
-10.0
-0.33
6.33
5.33
5.0
-3.33
2.33
-2.67
1.33
15.33
-2.67
3.33
-5.67
2.0
-2.33
-5.67
-2.0
-2.33
1.33
9.0
7.67
4.67
4.0
5.67
-5.0
-7.0
9.67
10.33
5.0
20.67
51.33
122.33
269.67
296.33
245.67
116.0
36.33
21.67
17.0
-4.0
2.67
10.33
8.0
7.0
6.67
11.0
6.67
2.67
6.33
3.67
0.67
12.67
5.0
6.0
-4.0
-8.0
12.0
4.0
-0.33
0.67
5.67
6.0
-1.0
4.67
5.67
-0.67
-8.33
2.67
3.0
-2.33
-2.33
9.33
9.33
11.67
13.0
11.67
3.67
-2.0
2.67
12.67
10.0
12.0
2.33
-2.67
-9.67
-6.33
-13.0
-1.67
4.33
-11.33
5.67
-4.67
-2.33
6.0
-1.67
12.0
10.33
3.33
-9.0
0.33
6.0
1.67
1.0
-3.67
0.33
1.0
-3.67
3.33
1.33
-1.67
1.67
-2.33
0.67
5.33
3.67
8.67
0.67
10.67
6.0
6.67
1.33
2.0
-0.33
-1.67
-5.0
1.33
0.33
-3.67
-0.33
-2.67
1.67
1.33
0.33
-6.33
0.33
1.67
-1.0
9.67
8.0