File: EDX Back Ups and Old Files/Spectra copy 3.3.23/Samples/High pH SF 60C 4d/6.25.txt
0.0
-97.67
33.33
20.33
-3.0
-1.67
0.0
-0.67
-0.67
-0.33
0.67
1.67
-0.33
0.33
-0.33
0.67
1.33
3.0
3.33
5.0
3.67
3.0
-7.67
-1.33
-2.33
0.33
-2.0
3.0
7.0
3.67
-5.0
3.33
-1.0
4.0
-7.67
5.67
3.0
6.0
8.33
6.33
1.33
-3.33
4.33
6.0
2.0
3.67
-2.33
-1.0
3.67
7.67
-1.33
-1.0
5.33
-0.33
2.33
2.67
-2.0
1.33
0.67
3.33
4.33
2.0
0.33
1.67
-0.67
6.33
-0.67
1.33
0.67
6.0
1.33
0.0
-0.33
-1.67
0.0
1.0
-0.67
5.0
3.0
3.0
-2.67
-0.33
5.33
-5.0
0.67
-1.0
-1.33
-2.67
-0.33
1.67
-2.67
-1.0
-1.33
1.67
-6.33
-2.0
-4.33
-1.0
1.0
-7.0
-2.33
-7.67
-3.0
-5.0
-5.67
-6.67
-4.67
-2.67
-0.33
-1.67
-7.67
-5.33
-5.67
0.0
-1.33
3.33
24.67
7.33
-4.0
-5.67
-6.0
-11.67
-3.67
-14.67
-1.67
-2.0
-7.0
-11.0
-13.33
-2.33
0.67
-3.0
-5.67
-4.0
-12.33
-7.33
-12.67
-3.0
-13.67
-9.67
-13.33
-2.67
-12.33
-10.0
-6.0
-8.67
1.67
3.0
10.0
4.33
11.67
2.0
-8.67
-7.67
-1.0
-3.0
4.67
2.33
-2.67
-5.0
-3.33
0.33
-0.67
1.33
10.33
2.33
11.33
-0.67
3.0
4.67
-3.67
8.0
-0.33
2.33
-1.0
9.67
-10.33
12.0
12.67
-10.0
-1.0
6.67
9.33
16.0
17.67
22.33
37.33
74.67
73.33
77.67
36.0
15.33
8.67
15.0
0.0
0.67
11.33
7.0
4.0
10.67
13.0
10.67
15.67
2.33
14.67
2.67
17.67
12.0
0.0
-2.0
-1.0
-1.0
2.0
-0.33
3.67
25.67
11.0
27.0
28.67
22.67
4.33
-3.33
9.67
15.0
8.67
3.67
10.33
6.33
1.67
4.0
4.67
11.67
0.0
2.67
7.67
5.0
-5.0
14.33
3.33
-3.67
-5.33
10.0
7.33
12.33
-3.33
7.67
6.33
-1.33
8.0
-5.67
2.0
0.33
2.33
5.0
6.33
-2.0
0.67
-3.0
4.33
8.33
2.0
2.33
-2.67
2.33
0.33
-6.33
3.67
-0.33
-2.67
6.67
-3.33
-1.33
1.67
-4.0
3.67
2.33
-1.0
-1.33
-0.67
-5.0
1.33
3.33
-1.67
-1.33
2.33
2.67
9.33
6.33
-2.33
4.33
3.67
0.0
3.67
6.0