File: EDX Back Ups and Old Files/Spectra copy 3.3.23/Samples/High pH SF 60C 4d/6.75.txt
0.0
4.33
60.33
28.33
3.0
-0.67
1.0
-0.67
0.33
0.67
0.67
0.67
2.67
0.33
0.67
1.67
4.33
0.0
3.33
8.0
1.67
-4.0
-0.67
1.67
1.67
-7.67
-4.0
8.0
1.0
3.67
-1.0
6.33
0.0
3.0
-3.67
0.67
2.0
0.0
7.33
1.33
1.33
6.67
3.33
1.0
4.0
7.67
0.67
-7.0
5.67
9.67
0.67
3.0
3.33
5.67
2.33
2.67
0.0
0.33
1.67
3.33
2.33
4.0
0.33
0.67
-0.67
1.33
-2.67
-2.67
7.67
3.0
0.33
2.0
-3.33
2.33
-3.0
0.0
2.33
6.0
7.0
5.0
1.33
-0.33
1.33
-6.0
1.67
1.0
0.67
-1.67
-4.33
2.67
-1.67
0.0
-0.33
-0.33
-5.33
-3.0
-7.33
2.0
2.0
-4.0
-2.33
-6.67
-3.0
3.0
-7.67
-5.67
-1.67
-4.67
-2.33
-6.67
-4.67
-6.33
-4.67
8.0
0.67
14.33
19.67
3.33
-2.0
-8.67
-5.0
-6.67
-6.67
-4.67
-7.67
-2.0
-9.0
-6.0
-6.33
-2.33
-4.33
-6.0
-0.67
-1.0
-6.33
-0.33
-4.67
-11.0
1.33
-9.67
-3.33
4.33
-3.33
-12.0
-9.0
-8.67
-5.33
1.0
9.0
5.33
6.67
5.0
-9.67
-2.67
-6.0
-8.0
-11.33
-7.67
2.33
2.0
3.67
0.33
5.33
2.33
2.33
7.33
-4.67
1.33
2.0
15.67
-6.67
4.0
6.67
6.33
12.0
14.67
-4.33
5.0
0.67
3.0
-1.0
-3.33
1.33
10.0
11.67
20.33
24.33
84.67
80.33
49.67
31.0
2.33
7.67
10.0
11.0
2.67
8.33
1.0
6.0
4.67
-1.0
5.67
8.67
2.33
3.67
4.67
7.67
8.0
6.0
14.0
6.0
2.0
12.0
-11.33
20.67
10.67
4.0
22.0
24.67
29.67
17.33
2.67
8.67
4.0
-1.33
1.67
7.33
-4.67
14.67
8.0
9.67
-2.33
11.0
-0.33
8.67
5.0
-2.0
4.33
-4.67
-6.67
-2.33
-1.0
2.33
11.33
5.67
6.67
2.33
-2.33
6.0
-0.67
-2.0
3.33
7.33
-4.0
7.33
-2.0
10.67
-5.0
6.33
-1.67
10.0
-9.67
10.33
-1.67
-5.67
1.67
5.67
4.67
9.33
-1.33
-0.33
-0.33
10.67
2.0
-3.33
2.33
1.0
-3.33
-1.67
-6.0
6.33
4.33
-1.67
2.67
3.33
0.67
6.33
8.33
-5.33
3.33
1.67
4.0
6.67
5.0