File: EDX Back Ups and Old Files/Spectra copy 3.3.23/Samples/High pH SF 60C 4d/8.0.txt
0.0
18.33
45.33
13.33
6.0
1.33
0.0
-0.67
-0.67
-0.33
-0.33
-0.33
-0.33
0.33
1.67
1.67
2.33
0.0
-1.67
3.0
-1.33
-1.0
0.33
3.67
-0.33
-4.67
-2.0
1.0
6.0
2.67
-5.0
3.33
-1.0
1.0
-1.67
8.67
4.0
4.0
3.33
3.33
3.33
7.67
-2.67
1.0
-1.0
-2.33
-1.33
0.0
1.67
7.67
1.67
1.0
3.33
7.67
-0.67
4.67
5.0
1.33
0.67
2.33
0.33
5.0
-2.67
2.67
5.33
3.33
5.33
-3.67
2.67
-1.0
-1.67
1.0
-0.33
2.33
4.0
-4.0
0.33
2.0
0.0
-2.0
-0.67
0.67
0.33
-5.0
0.67
-1.0
-4.33
1.33
-0.33
-1.33
3.33
0.0
-1.33
-1.33
-2.33
0.0
-1.33
2.0
3.0
-1.0
-2.33
-7.67
-1.0
-1.0
-4.67
-6.67
-5.67
2.33
-1.33
0.33
-8.67
-9.33
-7.67
2.0
-0.33
2.33
28.67
16.33
-4.0
-7.67
-5.0
-10.67
-9.67
-6.67
-5.67
-3.0
-2.0
-7.0
-7.33
-3.33
-6.33
3.0
-0.67
-11.0
-8.33
-5.33
-6.67
-2.0
-14.67
-7.67
-11.33
-4.67
-8.33
-11.0
-8.0
1.33
-1.33
15.0
19.0
9.33
4.67
-3.0
-8.67
0.33
0.0
-2.0
-0.33
4.33
4.33
-3.0
0.67
3.33
5.33
14.33
-0.67
-3.67
0.33
-4.67
-2.0
1.67
-6.67
-7.0
6.67
7.33
-3.0
12.67
2.67
-5.0
5.67
1.0
7.0
6.67
7.33
13.0
30.67
18.33
49.33
67.67
79.33
61.67
53.0
8.33
13.67
10.0
-3.0
-5.33
-1.67
9.0
9.0
10.67
-4.0
11.67
9.67
3.33
-2.33
24.67
20.67
5.0
0.0
7.0
0.0
10.0
13.0
11.67
13.67
5.67
0.0
35.0
26.67
26.67
27.33
7.67
-5.33
4.0
5.67
2.67
4.33
1.33
11.67
7.0
6.67
1.67
10.0
-3.33
24.67
11.0
6.0
-2.67
3.33
1.33
-10.33
-7.0
-0.67
-5.67
-5.33
8.67
-2.67
5.67
4.0
-2.67
3.0
0.33
0.33
7.0
1.33
4.0
-4.33
4.0
2.33
0.33
0.0
-7.67
2.33
3.33
0.33
-0.33
1.67
-0.33
4.33
-0.33
7.67
-0.33
4.67
3.0
1.67
1.33
-2.0
-0.33
-7.67
-1.0
2.33
3.33
0.33
2.67
0.33
5.67
6.33
6.33
2.67
2.33
0.67
-2.0
2.67
3.0