File: EDX Back Ups and Old Files/Spectra copy 3.3.23/Samples/High pH SF 60C 4d/9.0.txt
0.0
9.33
-39.67
16.33
9.0
-1.67
0.0
-0.67
-0.67
0.67
-0.33
0.67
-0.33
-0.67
1.67
0.67
2.33
2.0
1.33
-1.0
3.67
-1.0
-4.67
-1.33
2.67
-1.67
5.0
4.0
10.0
0.67
-5.0
-0.67
-1.0
8.0
-3.67
1.67
-5.0
1.0
2.33
8.33
-4.67
-2.33
0.33
9.0
0.0
3.67
-1.33
-3.0
1.67
7.67
3.67
8.0
1.33
2.67
2.33
-2.33
0.0
0.33
-0.33
-0.67
3.33
5.0
0.33
4.67
2.33
2.33
3.33
2.33
-3.33
-1.0
-0.67
-4.0
-5.33
3.33
-2.0
2.0
8.33
-1.0
3.0
3.0
4.33
1.67
3.33
-2.0
2.67
0.0
1.67
1.33
-1.33
0.67
-4.67
4.0
-1.33
-2.33
1.67
-3.0
-6.33
-3.0
1.0
-7.0
-2.33
-8.67
-5.0
4.0
-0.67
-9.67
-3.67
-3.67
-6.33
-7.67
-12.67
-5.33
-4.67
-1.0
4.67
10.33
17.67
14.33
-5.0
0.33
-3.0
-2.67
-5.67
-7.67
-1.67
-7.0
-7.0
-11.0
-4.33
-6.33
-8.33
-10.0
-7.67
-7.0
-4.33
-9.33
-5.67
-4.0
-12.67
-10.67
-8.33
0.33
-4.33
-8.0
-2.0
-1.67
0.67
2.0
20.0
7.33
8.67
4.0
0.33
1.33
-5.0
-12.0
-1.33
-2.67
3.33
1.0
-6.33
1.33
2.33
7.33
4.33
0.33
7.33
-3.67
4.0
4.67
-7.67
7.0
-5.33
0.33
4.0
5.67
6.67
9.0
8.67
5.0
4.0
4.67
11.33
17.0
16.67
17.33
36.33
66.67
89.33
88.67
31.0
23.33
8.67
21.0
-1.0
17.67
13.33
6.0
6.0
-1.33
-2.0
18.67
10.67
-5.67
11.67
10.67
12.67
5.0
12.0
4.0
10.0
8.0
9.0
6.67
16.67
12.67
15.0
29.0
30.67
15.67
23.33
-0.33
3.67
16.0
6.67
9.67
11.33
6.33
5.67
14.0
10.67
-1.33
7.0
2.67
6.67
4.0
4.0
8.33
-0.67
1.33
-0.33
-8.0
-2.67
4.33
4.67
10.67
1.33
-0.33
12.0
-0.67
8.0
4.33
1.33
6.0
2.33
3.0
-3.33
3.0
-0.67
2.33
5.0
-2.67
-1.67
1.33
6.33
0.67
6.67
-1.33
1.33
2.67
8.67
-4.33
3.67
2.0
5.67
2.33
-3.0
4.67
4.33
0.0
5.33
3.33
0.33
7.67
-1.67
5.67
4.33
0.33
-2.33
4.33
-6.33
-5.0
8.67
3.0