File: EDX Back Ups and Old Files/Spectra copy 3.3.23/Samples/High pH SF 60C 4d/9.25.txt
0.0
-55.67
75.33
14.33
2.0
1.33
-1.0
0.33
-0.67
-0.33
-0.33
0.67
-0.33
-0.67
2.67
-1.33
0.33
0.0
-2.67
0.0
-0.33
0.0
-1.67
1.67
5.67
2.33
2.0
11.0
-1.0
-0.33
2.0
0.33
1.0
-3.0
3.33
-1.33
3.0
6.0
5.33
0.33
1.33
1.67
5.33
8.0
1.0
3.67
-4.33
6.0
-0.33
3.67
4.67
6.0
2.33
2.67
2.33
2.67
1.0
-0.67
-2.33
-2.67
-0.67
3.0
9.33
-0.33
-1.67
-2.67
4.33
-4.67
1.67
3.0
2.33
-1.0
-2.33
-0.67
0.0
-4.0
3.33
-1.0
1.0
1.0
5.33
-4.33
3.33
0.0
-4.33
-3.0
4.67
-4.67
-1.33
-1.33
-1.67
1.0
-3.33
5.67
-5.33
0.0
-3.33
-1.0
4.0
-7.0
-2.33
-6.67
-2.0
1.0
-3.67
-3.67
-1.67
-4.67
-3.33
-3.67
-7.67
-5.33
-4.67
1.0
15.67
11.33
38.67
25.33
-6.0
-6.67
-4.0
-10.67
-6.67
-12.67
-8.67
-2.0
-6.0
-12.0
-9.33
-0.33
-1.33
-2.0
-3.67
-6.0
0.67
-7.33
-11.67
-1.0
-12.67
-7.67
-10.33
1.33
-10.33
-6.0
-1.0
-4.67
-5.33
17.0
22.0
12.33
3.67
1.0
6.33
2.33
-3.0
-9.0
-1.33
-6.67
-4.67
-4.0
-3.33
6.33
-3.67
4.33
6.33
-1.67
0.33
-2.67
6.0
3.67
2.33
8.0
1.67
6.33
1.0
7.67
3.67
5.0
11.67
8.0
-2.0
4.67
11.33
2.0
17.67
27.33
40.33
90.67
97.33
88.67
30.0
17.33
7.67
16.0
1.0
5.67
18.33
23.0
14.0
17.67
6.0
16.67
16.67
8.33
11.67
2.67
5.67
14.0
4.0
2.0
9.0
9.0
0.0
1.67
2.67
10.67
27.0
30.0
42.67
42.67
7.33
-4.33
-4.33
3.0
16.67
-6.33
10.33
11.33
-0.33
8.0
2.67
0.67
-8.0
-5.33
-6.33
-2.0
-1.0
0.33
4.33
4.33
-15.33
-8.0
-2.67
6.33
-3.33
10.67
-2.67
-10.33
-2.0
-2.67
6.0
16.33
4.33
5.0
-3.67
-4.0
7.67
1.0
6.33
2.33
4.0
11.33
2.33
1.33
-7.67
-3.33
7.67
1.67
6.33
2.67
-2.33
-1.33
8.67
-1.0
-2.33
-7.67
1.0
1.67
-3.67
1.0
-1.67
10.33
-3.67
1.67
0.33
6.67
4.33
4.33
-4.33
5.33
-1.33
0.0
6.67
-2.0