File: EDX Back Ups and Old Files/Spectra copy 3.3.23/Samples/Low pH SF Ref/10.5.txt
0.0
-45.67
-63.0
-34.0
-6.67
-1.67
-0.33
1.0
-0.67
-0.67
-0.33
0.0
0.33
0.0
0.0
3.67
1.0
5.67
-2.67
6.0
-2.67
1.0
3.67
0.67
11.67
0.67
4.67
2.33
3.33
-0.33
1.67
0.0
0.67
1.67
2.0
6.33
5.0
3.33
3.67
10.67
3.33
5.33
-2.0
9.0
-1.0
-2.33
1.33
-2.0
1.0
2.33
6.0
3.33
3.33
1.33
3.33
5.67
-3.33
2.67
-2.67
4.0
1.67
-2.67
-2.33
4.0
-0.33
-2.67
-2.67
-3.33
3.67
-6.0
3.33
-0.67
4.0
2.67
4.67
1.0
0.33
0.0
1.67
0.67
1.33
1.67
0.33
1.0
-0.33
5.0
2.67
-2.33
5.0
-3.67
4.0
7.67
-4.0
1.33
-3.67
1.67
0.33
-0.67
-2.67
-2.33
0.33
-0.33
4.0
2.0
0.33
-1.33
-5.67
-1.0
0.67
5.33
-0.33
-0.33
-4.0
0.0
2.0
-1.33
14.33
2.33
9.0
3.33
2.0
0.33
6.33
-2.33
0.33
4.33
1.33
4.0
4.33
5.67
8.33
4.0
11.0
10.0
25.67
55.33
74.0
32.33
9.0
14.33
43.67
36.0
36.33
23.67
13.0
11.33
16.67
23.67
31.33
15.67
18.33
18.67
28.0
29.0
32.67
32.0
42.0
27.67
23.33
33.67
25.33
28.67
27.0
32.0
45.0
40.0
33.67
11.33
42.0
109.0
149.67
116.33
103.67
44.0
32.33
27.33
37.0
45.33
52.0
33.0
34.67
26.33
14.0
2.0
15.33
7.67
15.67
20.33
23.0
55.0
47.0
27.0
43.0
27.67
17.33
18.33
27.33
13.33
5.0
22.0
6.33
9.33
7.67
2.33
15.33
6.67
-0.67
16.33
14.0
10.67
8.33
13.0
9.67
8.0
8.0
-3.33
6.0
11.0
28.0
6.0
-4.0
0.67
16.67
18.0
15.0
12.67
14.33
11.0
13.33
17.67
-3.67
8.33
9.33
9.33
0.0
2.33
3.33
7.67
-5.67
6.67
-0.33
4.67
15.0
5.33
-3.0
4.33
3.67
6.33
-0.33
4.0
6.67
9.33
-0.33
1.0
4.67
4.33
4.67
8.67
-1.67
-3.67
4.0
2.33
0.33
2.33
5.0
2.67
8.33
1.67
-5.67
3.0
6.0
10.67
-3.33
8.67
6.0
1.0
6.33
-6.67
7.33
5.33
-2.67
6.33
6.33
6.67
6.33
-0.33
-3.0
0.67
6.33
-2.67
3.67
-1.0
0.67
1.0