File: EDX Back Ups and Old Files/Spectra copy 3.3.23/Samples/Low pH SF Ref/11.0.txt
0.0
4.33
14.0
-14.0
5.33
-2.67
-0.33
0.0
0.33
0.33
-0.33
1.0
0.33
1.0
1.0
1.67
0.0
-1.33
1.33
2.0
3.33
-2.0
0.67
4.67
10.67
3.67
5.67
1.33
1.33
0.67
6.67
1.0
2.67
3.67
3.0
10.33
3.0
6.33
1.67
-1.33
1.33
2.33
-1.0
3.0
2.0
-0.33
3.33
2.0
4.0
3.33
7.0
3.33
3.33
-1.67
-0.67
-1.33
-3.33
6.67
0.33
5.0
-0.33
1.33
-2.33
3.0
-0.33
3.33
0.33
5.67
8.67
1.0
4.33
0.33
6.0
-0.33
6.67
1.0
-0.67
3.0
0.67
0.67
1.33
-2.33
4.33
2.0
-0.33
1.0
0.67
-0.33
-6.0
3.33
0.0
3.67
-2.0
0.33
-0.67
2.67
-0.67
6.33
4.33
2.67
3.33
-3.33
3.0
4.0
2.33
0.67
-4.67
1.0
3.67
-1.67
-2.33
2.67
2.0
-3.0
0.0
2.67
1.33
12.33
4.0
9.33
4.0
6.33
10.33
12.67
1.33
3.33
22.33
4.0
6.33
3.67
17.33
13.0
17.0
70.0
107.67
88.33
40.0
17.33
17.0
13.33
37.67
31.0
41.33
52.67
36.0
18.33
22.67
19.67
16.33
20.67
19.33
31.67
24.0
27.0
25.67
44.0
30.0
29.67
17.33
19.67
25.33
23.67
23.0
49.0
55.0
47.0
34.67
20.33
21.0
60.0
112.67
207.33
243.67
103.0
36.33
36.33
34.0
55.33
105.0
160.0
111.67
55.33
26.0
15.0
7.33
15.67
2.67
19.33
29.0
46.0
66.0
48.0
21.0
33.67
26.33
35.33
17.33
15.33
2.0
5.0
7.33
7.33
19.67
11.33
18.33
6.67
12.33
11.33
30.0
9.67
9.33
13.0
8.67
23.0
13.0
6.67
15.0
-5.0
6.0
6.0
1.0
-3.33
8.67
10.0
19.0
7.67
7.33
14.0
2.33
0.67
4.33
13.33
9.33
7.33
2.0
9.33
13.33
1.67
0.33
10.67
5.67
9.67
7.0
-1.67
-5.0
-6.67
5.67
-4.67
-1.33
4.0
5.67
0.33
-0.33
9.0
6.67
-6.67
9.67
4.67
1.33
-4.67
-1.0
0.33
6.33
3.33
6.0
4.67
7.33
6.67
0.33
10.0
8.0
4.67
-0.33
10.67
13.0
5.0
6.33
1.33
8.33
6.33
6.33
0.33
-2.67
-1.33
3.33
4.67
2.0
0.67
6.33
-1.67
0.67
4.0
-6.33
0.0