File: EDX Back Ups and Old Files/Spectra copy 3.3.23/Samples/Low pH SF Ref/11.5.txt
0.0
-22.67
-15.0
-4.0
-3.67
4.33
-0.33
0.0
-0.67
0.33
0.67
1.0
-0.67
2.0
1.0
-0.33
-3.0
2.67
2.33
-2.0
-0.67
0.0
0.67
-3.33
4.67
4.67
0.67
1.33
4.33
-0.33
7.67
3.0
9.67
8.67
-2.0
5.33
-1.0
0.33
6.67
2.67
4.33
4.33
-3.0
-5.0
0.0
5.67
3.33
-1.0
6.0
7.33
4.0
3.33
5.33
4.33
2.33
-0.33
1.67
7.67
4.33
1.0
2.67
-2.67
-6.33
4.0
-2.33
2.33
-1.67
-2.33
0.67
0.0
3.33
-1.67
4.0
0.67
2.67
-2.0
2.33
-2.0
5.67
-0.33
-1.67
-4.33
7.33
0.0
1.67
2.0
-0.33
-0.33
1.0
2.33
-3.0
6.67
-1.0
-2.67
-2.67
1.67
-3.67
8.33
3.33
-3.33
0.33
-3.33
8.0
1.0
0.33
-2.33
-3.67
-5.0
0.67
-0.67
5.67
2.67
-5.0
0.0
-4.0
-2.33
-4.67
6.33
13.0
9.33
3.0
5.33
13.33
-1.33
6.33
8.33
8.33
6.0
5.33
8.67
7.33
9.0
20.0
40.0
86.67
41.33
30.0
11.33
2.0
16.33
31.67
26.0
31.33
41.67
27.0
13.33
6.67
13.67
13.33
15.67
20.33
34.67
41.0
31.0
56.67
57.0
42.0
22.67
28.33
19.67
9.33
13.67
13.0
29.0
35.0
60.0
51.67
23.33
39.0
34.0
84.67
115.33
115.67
86.0
41.33
22.33
30.0
92.33
115.0
160.0
83.67
38.33
13.0
11.0
4.33
7.67
6.67
12.33
4.0
17.0
25.0
26.0
15.0
32.67
25.33
22.33
27.33
3.33
14.0
11.0
9.33
10.33
7.67
9.33
15.33
24.67
21.33
8.33
12.0
2.67
12.33
8.0
1.67
-1.0
6.0
-0.33
17.0
12.0
10.0
-1.0
-12.0
-3.33
24.67
2.0
17.0
18.67
21.33
9.0
5.33
6.67
20.33
3.33
5.33
-0.67
-5.0
2.33
8.33
-2.33
-4.67
-6.33
-1.33
7.67
11.0
11.33
2.0
6.33
4.67
-7.67
5.67
6.0
3.67
2.33
2.67
11.0
-1.33
6.33
1.67
7.67
8.33
6.33
5.0
5.33
7.33
5.33
10.0
4.67
-0.67
3.67
2.33
0.0
4.0
5.67
2.67
9.67
5.0
5.0
4.33
-3.67
0.33
5.33
-1.67
-3.67
-0.67
0.67
0.33
1.67
0.0
3.67
3.33
-1.67
-0.33
-2.0
-7.33
4.0