File: EDX Back Ups and Old Files/Spectra copy 3.3.23/Samples/Low pH SF Ref/12.0.txt
0.0
79.33
-22.0
4.0
-6.67
-1.67
-0.33
2.0
-0.67
-0.67
-0.33
0.0
-0.67
1.0
2.0
2.67
-2.0
-1.33
-1.67
1.0
-0.67
-1.0
-0.33
2.67
-2.33
-0.33
0.67
0.33
-5.67
3.67
-1.33
7.0
7.67
0.67
1.0
11.33
-5.0
1.33
3.67
3.67
4.33
5.33
0.0
-1.0
2.0
-4.33
-0.67
-2.0
2.0
2.33
3.0
1.33
4.33
6.33
-0.67
1.67
-2.33
0.67
3.33
1.0
2.67
0.33
-1.33
7.0
1.67
-0.67
-0.67
-2.33
10.67
3.0
-0.67
-1.67
6.0
1.67
2.67
-1.0
-0.67
-2.0
-0.33
0.67
0.33
-2.33
0.33
-2.0
0.67
2.0
-0.33
6.67
-2.0
1.33
1.0
1.67
0.0
0.33
1.33
-2.33
-1.67
-0.67
0.33
-0.33
-0.67
1.67
-3.0
-2.0
-2.67
2.67
-6.67
-7.0
1.67
1.33
-3.33
-3.33
-7.0
3.0
-4.0
-5.33
1.33
6.33
8.0
3.33
4.0
3.33
4.33
-0.33
0.33
-1.67
-5.67
2.0
4.33
3.67
4.33
7.0
-1.0
11.0
1.67
11.33
5.0
1.33
-5.0
-2.67
-5.33
4.0
8.33
9.67
-5.0
9.33
8.67
7.67
10.33
6.67
8.33
15.67
12.0
6.0
6.67
8.0
9.0
2.67
6.33
4.67
2.33
8.67
5.0
-2.0
0.0
-2.0
-0.33
3.33
-4.0
3.0
16.67
27.33
6.67
11.0
14.33
7.33
7.0
25.33
39.0
17.0
5.67
11.33
2.0
-2.0
2.33
5.67
1.67
9.33
4.0
2.0
19.0
5.0
3.0
11.67
-1.67
1.33
7.33
1.33
16.0
1.0
-1.67
4.33
5.67
10.33
8.33
8.67
4.33
13.33
14.0
-4.33
5.33
2.0
3.67
-4.0
8.0
-3.33
1.0
2.0
-2.0
-1.0
-8.0
-1.33
14.67
6.0
11.0
0.67
-1.67
0.0
-5.67
1.67
-1.67
4.33
-4.67
-7.67
-3.0
11.33
0.33
-2.33
-4.67
-0.33
-2.33
4.67
3.0
1.33
-3.0
-4.67
7.67
0.33
3.67
0.0
3.67
8.33
-6.33
0.0
0.67
5.33
1.67
-0.33
-8.67
-3.67
0.0
-4.67
11.33
4.33
-1.0
-0.33
8.33
-3.33
-1.67
2.0
4.0
-5.33
4.67
2.67
7.0
-1.0
4.33
-2.67
1.33
-2.67
-4.67
-3.67
-0.67
3.67
1.33
-0.33
2.0
-0.33
2.33
-3.67
3.67
2.0
-4.33
-2.0