File: EDX Back Ups and Old Files/Spectra copy 3.3.23/Samples/Low pH SF Ref/12.25.txt
0.0
-17.67
-17.0
-2.0
9.33
0.33
-0.33
0.0
-0.67
0.33
0.67
0.0
1.33
1.0
1.0
1.67
-1.0
1.67
1.33
3.0
2.33
-1.0
-0.33
-2.33
1.67
0.67
3.67
-0.67
5.33
0.67
-2.33
-2.0
-0.33
-0.33
-2.0
-0.67
2.0
5.33
-1.33
2.67
0.33
0.33
-3.0
1.0
1.0
0.67
1.33
1.0
4.0
-2.67
1.0
2.33
1.33
1.33
1.33
-0.33
-2.33
-0.33
3.33
-1.0
5.67
0.33
1.67
3.0
4.67
0.33
3.33
-1.33
0.67
-6.0
4.33
-2.67
4.0
-0.33
-0.33
0.0
-0.67
7.0
-1.33
6.67
0.33
-4.33
4.33
-3.0
-1.33
2.0
-1.33
-0.33
-1.0
-0.67
2.0
2.67
2.0
-0.67
-2.67
0.67
-1.67
4.33
0.33
-1.33
3.33
-1.33
2.0
-1.0
-1.67
3.67
-0.67
-2.0
2.67
-0.67
2.67
-0.33
0.0
-3.0
-1.0
-3.33
2.33
-2.67
5.0
-0.67
2.0
1.33
4.33
-0.33
0.33
-0.67
0.33
2.0
3.33
4.67
5.33
3.0
0.0
0.0
0.67
-1.67
5.0
-5.67
-1.0
4.33
-1.33
0.0
-2.67
5.67
-2.0
7.33
0.67
3.67
-0.67
1.67
-4.67
2.67
1.0
-3.0
6.67
4.0
3.0
1.67
-3.67
3.67
-4.67
0.67
2.0
5.0
12.0
-4.0
-0.33
3.33
-1.0
6.0
-0.33
5.33
0.67
-1.0
2.33
7.33
-2.0
-2.67
5.0
3.0
-5.33
2.33
1.0
-8.0
-6.67
-2.33
0.67
3.33
-4.0
8.0
0.0
14.0
-8.0
0.67
2.33
9.33
-2.67
-5.67
-3.0
3.0
1.33
1.33
4.67
-6.67
5.33
1.67
-6.67
-1.67
13.0
0.67
1.33
-5.0
3.67
12.0
3.0
-10.33
2.0
-7.0
25.0
-2.0
-7.0
0.67
12.67
-5.0
7.0
12.67
11.33
6.0
7.33
4.67
-3.67
2.33
1.33
-0.67
0.0
-1.67
5.33
2.67
-9.67
-2.33
-8.33
12.67
11.0
0.33
-8.0
-2.67
1.67
-2.67
-4.33
0.0
3.67
0.33
-5.33
5.0
0.67
-4.67
-5.33
1.67
-4.67
-0.67
-6.0
-1.67
1.33
0.33
7.0
3.67
9.33
1.67
-3.67
-2.0
1.0
-5.33
-1.33
3.67
1.0
7.0
1.33
-0.67
3.33
-0.67
-3.67
-4.67
-4.67
-0.33
2.33
-3.33
1.0
-3.33
5.33
1.33
2.67
1.0
-1.33
0.0