File: EDX Back Ups and Old Files/Spectra copy 3.3.23/Samples/Low pH SF Ref/9.0.txt
0.0
-58.67
-77.0
-19.0
3.33
-1.67
-0.33
1.0
-0.67
-0.67
-0.33
0.0
-0.67
0.0
1.0
-0.33
1.0
0.67
2.33
-1.0
4.33
1.0
0.67
4.67
4.67
2.67
-1.33
8.33
6.33
-0.33
-2.33
8.0
4.67
0.67
5.0
11.33
5.0
5.33
7.67
8.67
0.33
5.33
-7.0
-1.0
6.0
0.67
5.33
1.0
4.0
4.33
8.0
3.33
9.33
-1.67
5.33
3.67
1.67
-0.33
-0.67
0.0
4.67
5.33
0.67
-2.0
0.67
9.33
2.33
-2.33
9.67
-6.0
4.33
-2.67
0.0
0.67
4.67
-2.0
-1.67
1.0
2.67
5.67
7.33
-3.33
5.33
7.0
-4.33
6.0
4.67
1.67
1.0
4.33
-1.0
-1.33
1.0
0.33
-3.67
1.67
-1.67
1.33
4.33
-0.33
-3.67
-4.33
4.0
1.0
-3.67
-0.33
-4.67
-8.0
2.67
-1.67
10.67
-0.33
-2.0
6.0
-3.0
5.67
10.33
-0.67
6.0
-0.67
5.0
3.33
11.33
3.67
0.33
3.33
4.33
4.0
8.33
0.67
17.33
15.0
6.0
14.0
11.67
14.33
10.0
17.33
13.0
10.33
31.67
64.0
35.33
22.67
16.0
13.33
8.67
11.67
14.33
15.67
21.33
39.67
24.0
22.0
19.67
37.0
52.0
39.67
19.33
3.67
-1.67
8.67
23.0
20.0
39.0
9.0
4.67
18.33
0.0
56.0
113.67
105.33
47.67
25.0
31.33
24.33
25.0
33.33
46.0
27.0
19.67
20.33
17.0
16.0
-0.67
6.67
3.67
19.33
10.0
27.0
21.0
35.0
10.0
20.67
10.33
35.33
23.33
22.33
16.0
6.0
2.33
15.33
-2.33
26.33
14.33
11.67
14.33
6.33
16.0
1.67
5.33
14.0
-0.33
14.0
18.0
4.67
5.0
8.0
18.0
11.0
15.0
2.67
18.67
32.0
6.0
5.67
20.33
20.0
19.33
15.67
-0.67
16.33
14.33
11.33
13.0
2.33
8.33
3.67
4.33
6.67
2.67
10.67
3.0
-0.67
2.0
6.33
-5.33
-7.67
1.67
1.0
6.67
-0.67
1.67
-8.0
9.67
-1.67
-4.33
10.67
-1.67
-3.67
-4.0
-0.67
8.33
-0.67
2.0
9.67
6.33
-2.33
7.33
-1.0
1.0
-3.33
4.67
0.67
1.0
3.0
4.33
-2.67
5.33
3.33
-1.67
-1.67
0.33
4.67
-1.67
3.67
3.0
0.67
7.33
-0.67
-1.33
1.0
-1.33
8.0