File: EDX Back Ups and Old Files/Spectra copy 3.3.23/Samples/Low pH SF Ref/9.75.txt
0.0
13.33
24.0
0.0
2.33
0.33
-0.33
1.0
-0.67
-0.67
-0.33
0.0
-0.67
1.0
1.0
0.67
-2.0
3.67
0.33
1.0
1.33
4.0
6.67
2.67
1.67
2.67
6.67
6.33
0.33
0.67
-1.33
5.0
2.67
-1.33
5.0
3.33
1.0
3.33
4.67
3.67
-2.67
1.33
0.0
-1.0
2.0
1.67
-2.67
5.0
4.0
2.33
-1.0
4.33
3.33
4.33
0.33
-0.33
7.67
8.67
1.33
-1.0
4.67
8.33
9.67
2.0
-2.33
-0.67
1.33
-0.33
2.67
-2.0
2.33
2.33
-1.0
0.67
1.67
2.0
4.33
0.0
1.67
1.67
-1.67
1.67
1.33
0.0
-1.33
3.0
-0.33
-0.33
1.0
6.33
4.0
-0.33
-4.0
-2.67
5.33
2.67
1.33
-1.67
4.33
0.67
1.33
0.67
6.0
1.0
-2.67
3.67
0.33
0.0
1.67
1.33
-0.33
-2.33
-3.0
-1.0
4.0
-3.33
5.33
9.33
0.0
4.33
6.0
7.33
-0.67
-0.33
3.33
3.33
1.33
2.0
11.33
9.67
8.33
9.0
5.0
21.0
33.67
23.33
24.0
9.33
1.0
19.33
32.67
45.0
28.33
22.67
10.0
10.33
15.67
16.67
21.33
8.67
8.33
13.67
12.0
38.0
42.67
70.0
39.0
19.67
15.33
16.67
7.33
24.67
17.0
12.0
19.0
13.0
15.67
10.33
19.0
65.0
87.67
104.33
57.67
39.0
37.33
36.33
27.0
31.33
37.0
27.0
29.67
40.33
18.0
16.0
10.33
7.67
8.67
8.33
7.0
20.0
27.0
14.0
34.0
20.67
33.33
16.33
14.33
7.33
10.0
14.0
19.33
28.33
6.67
10.33
23.33
9.67
10.33
20.33
41.0
14.67
14.33
8.0
2.67
13.0
7.0
-3.33
-2.0
14.0
21.0
4.0
-9.0
2.67
-0.33
19.0
13.0
18.67
14.33
2.0
1.33
-1.33
-2.67
17.33
9.33
15.33
3.0
3.33
1.33
6.67
8.33
9.67
0.67
14.67
10.0
0.33
1.0
4.33
7.67
-4.67
3.67
1.0
12.67
11.33
2.67
8.0
-3.33
3.33
0.67
8.67
0.33
-1.67
2.0
1.33
5.33
-0.67
-1.0
3.67
4.33
6.67
7.33
4.0
3.0
0.67
-4.33
7.67
3.0
-1.0
2.33
-2.67
6.33
0.33
-2.67
-4.67
-2.67
0.67
1.33
-2.33
5.0
-1.33
12.33
2.33
5.67
4.0
-0.33
1.0