File: EDX Back Ups and Old Files/Spectra copy 3.3.23/Samples/High pH BL 25C 4d/10.0.txt
0.0
-81.0
-70.33
-35.67
-0.67
2.33
0.67
0.67
0.0
-0.33
0.0
1.0
2.0
1.67
1.0
0.0
3.0
0.33
-2.67
0.0
3.0
8.67
2.0
3.67
0.0
0.33
-4.67
7.33
3.0
3.33
4.0
4.0
0.67
7.0
-1.0
-1.67
5.33
2.33
4.67
1.33
0.0
-2.67
8.33
1.67
1.33
-0.33
3.0
1.0
4.33
0.0
5.0
6.33
1.0
-1.33
2.0
0.67
2.33
-1.0
-4.33
1.33
-6.0
-2.67
3.67
1.0
2.67
0.67
3.33
-1.0
6.67
-0.67
1.0
-3.67
5.0
1.33
2.33
0.0
-1.67
0.67
-2.33
2.0
2.0
2.0
0.0
-0.67
1.0
1.67
3.67
3.67
-4.67
-2.0
-2.67
0.67
-5.0
-1.33
1.0
0.0
-4.0
-2.0
3.67
3.67
1.33
4.67
5.0
-1.33
2.67
-0.67
5.67
0.67
0.33
-0.33
1.33
-4.0
-1.33
-0.67
7.67
25.33
43.67
35.33
11.33
8.67
1.0
2.33
-3.0
3.0
-0.33
9.33
12.67
7.0
-0.67
4.67
4.0
2.33
9.0
3.67
-5.67
-2.0
10.67
0.33
11.67
10.67
6.67
1.33
2.33
3.33
8.67
16.0
6.0
16.0
31.67
21.33
13.33
3.67
10.33
7.0
8.67
14.67
8.33
3.33
4.33
19.0
9.0
6.0
9.33
8.33
-2.67
2.33
6.67
3.33
-2.0
5.67
3.33
11.67
11.0
11.0
9.0
18.33
7.33
9.0
9.33
6.67
5.0
14.33
14.33
20.33
9.67
39.33
45.67
87.33
93.33
117.0
52.0
17.33
15.0
13.0
18.67
7.67
7.0
9.0
20.33
15.33
17.33
18.0
9.67
6.67
4.0
20.33
15.67
11.0
6.67
13.0
6.0
16.33
0.0
7.0
2.0
12.67
14.67
13.33
29.33
14.67
17.0
10.33
8.0
13.0
1.0
6.33
10.0
-4.0
8.33
15.67
3.0
4.0
5.67
8.0
3.33
3.67
15.67
4.0
-5.0
3.33
7.0
7.67
7.67
5.0
-6.67
5.33
7.67
16.33
-5.67
12.33
4.67
15.67
4.0
6.33
-2.33
2.67
-2.67
-5.0
-7.0
10.0
-0.33
4.0
-5.0
10.67
-2.0
0.0
-3.0
5.0
-6.67
4.67
-1.0
2.0
11.0
3.33
7.0
2.33
-3.33
4.0
3.0
0.33
-0.33
1.33
-0.67
2.67
4.33
-1.67
-5.0
3.0
3.67
4.67
0.67
-5.0
-0.33
1.67