File: EDX Back Ups and Old Files/Spectra copy 3.3.23/Samples/High pH BL 25C 4d/11.5.txt
0.0
-118.0
-12.33
-34.67
-0.67
-0.67
-0.33
-0.33
0.0
-0.33
1.0
0.0
1.0
0.67
0.0
0.0
0.0
0.33
0.33
3.0
5.0
3.67
6.0
8.67
-1.0
0.33
-5.67
6.33
5.0
3.33
2.0
3.0
1.67
0.0
-3.0
-0.67
5.33
-0.67
-2.33
-1.67
2.0
1.33
1.33
3.67
1.33
7.67
8.0
0.0
1.33
2.0
1.0
2.33
2.0
2.67
2.0
3.67
-2.67
1.0
-3.33
-0.67
2.0
5.33
0.67
-7.0
-1.33
0.67
-3.67
1.0
-2.33
1.33
5.0
-0.67
-2.0
8.33
3.33
0.0
-3.67
0.67
0.67
6.0
1.0
-3.0
5.0
-5.67
0.0
5.67
-1.33
5.67
5.33
-2.0
-0.67
-1.33
-5.0
-1.33
5.0
-1.0
-5.0
0.0
1.67
3.67
-3.67
4.67
4.0
-0.33
2.67
6.33
1.67
1.67
6.33
2.67
1.33
2.0
2.67
10.33
7.67
21.33
20.67
11.33
6.33
5.67
2.0
-1.67
-1.0
10.0
2.67
5.33
1.67
3.0
7.33
0.67
16.0
8.33
11.0
1.67
0.33
11.0
4.67
-0.67
-1.33
7.67
-0.33
7.33
2.33
0.33
5.67
11.0
15.0
24.0
49.67
22.33
14.33
11.67
13.33
6.0
9.67
21.67
5.33
16.33
4.33
19.0
16.0
6.0
5.33
8.33
17.33
10.33
4.67
1.33
13.0
12.67
6.33
12.67
6.0
9.0
18.0
9.33
-0.67
14.0
22.33
14.67
9.0
20.33
8.33
11.33
18.67
54.33
93.67
196.33
249.33
189.0
94.0
38.33
21.0
12.0
20.67
3.67
16.0
7.0
16.33
12.33
12.33
13.0
12.67
21.67
6.0
17.33
9.67
11.0
2.67
6.0
6.0
12.33
7.0
2.0
10.0
7.67
3.67
23.33
12.33
1.67
17.0
7.33
9.0
14.0
6.0
4.33
8.0
14.0
8.33
19.67
-1.0
0.0
5.67
18.0
3.33
8.67
5.67
9.0
7.0
2.33
-9.0
10.67
10.67
-5.0
-9.67
-15.67
10.67
-0.67
3.33
5.33
6.67
5.67
9.0
1.33
-4.33
-1.33
1.33
-1.0
4.0
3.0
-1.33
1.0
-8.0
8.67
-1.0
-9.0
0.0
-4.0
0.33
5.67
-5.0
3.0
3.0
-0.67
6.0
5.33
0.67
4.0
-5.0
2.33
-0.33
1.33
0.33
0.67
-3.67
2.33
-7.0
4.0
2.67
7.67
2.67
-5.0
-2.33
5.67