File: EDX Back Ups and Old Files/Spectra copy 3.3.23/Samples/High pH BL 25C 4d/11.75.txt
0.0
-7.0
-12.33
-47.67
-11.67
-2.67
3.67
-0.33
2.0
-0.33
0.0
0.0
0.0
-0.33
0.0
0.0
2.0
0.33
-1.67
12.0
11.0
0.67
0.0
1.67
-5.0
4.33
-4.67
0.33
6.0
0.33
2.0
2.0
1.67
2.0
5.0
0.33
4.33
0.33
7.67
1.33
-2.0
-0.67
9.33
2.67
2.33
-1.33
5.0
3.0
3.33
8.0
0.0
1.33
3.0
1.67
-2.0
1.67
1.33
1.0
-0.33
-2.67
-3.0
-0.67
-1.33
-1.0
2.67
3.67
2.33
0.0
0.67
3.33
4.0
-2.67
-3.0
4.33
2.33
4.0
-0.67
0.67
1.67
3.0
0.0
1.0
2.0
0.33
0.0
-0.33
-5.33
1.67
-0.67
-2.0
-0.67
0.67
-4.0
0.67
0.0
-1.0
-3.0
-1.0
-0.33
1.67
2.33
3.67
2.0
1.67
0.67
2.33
2.67
-0.33
-0.67
2.67
0.33
4.0
-3.33
9.33
5.67
8.33
9.67
11.33
2.33
10.67
8.0
2.33
1.0
4.0
12.67
2.33
0.67
8.0
10.33
5.67
12.0
7.33
-3.0
1.67
8.33
6.0
14.67
0.33
4.67
5.67
5.67
2.33
5.33
6.33
18.67
16.0
17.0
34.0
43.67
30.33
18.33
5.67
8.33
-2.0
3.67
15.67
13.33
20.33
5.33
12.0
19.0
8.0
14.33
11.33
14.33
1.33
12.67
18.33
13.0
25.67
10.33
10.67
13.0
13.0
8.0
5.33
6.33
20.0
3.33
2.67
20.0
6.33
18.33
15.33
16.67
46.33
110.67
209.33
278.33
215.0
102.0
35.33
20.0
6.0
20.67
-6.33
11.0
-3.0
9.33
8.33
9.33
16.0
7.67
12.67
-3.0
0.33
9.67
10.0
7.67
-3.0
19.0
10.33
-3.0
9.0
6.0
-3.33
-0.33
6.33
12.33
8.67
4.0
10.33
14.0
-5.0
6.0
16.33
2.0
-8.0
3.33
16.67
20.0
0.0
5.67
7.0
-5.67
3.67
7.67
1.0
5.0
10.33
-6.0
6.67
1.67
-2.0
5.33
-3.67
8.67
6.33
5.33
20.33
19.67
10.67
0.0
10.33
1.67
5.67
5.33
2.0
-2.0
5.0
6.67
5.0
-3.0
-1.33
-4.0
-5.0
-3.0
6.0
-0.67
2.67
2.0
9.0
-2.0
4.33
11.0
2.33
-1.33
4.0
-2.0
1.33
5.67
2.33
6.33
0.67
2.33
4.33
-2.0
2.0
5.67
4.67
-4.33
3.0
0.67
4.67