File: EDX Back Ups and Old Files/Spectra copy 3.3.23/Samples/High pH BL 25C 4d/12.0.txt
0.0
84.0
-9.33
-22.67
-8.67
-0.67
0.67
0.67
0.0
0.67
0.0
0.0
1.0
-0.33
0.0
1.0
1.0
-2.67
1.33
6.0
3.0
4.67
4.0
0.67
2.0
-0.67
-0.67
2.33
-2.0
-2.67
1.0
2.0
1.67
3.0
5.0
2.33
-3.67
2.33
0.67
-2.67
1.0
-4.67
-2.67
-0.33
-0.67
0.67
4.0
-2.0
-0.67
-2.0
5.0
-0.67
-1.0
7.67
5.0
0.67
4.33
1.0
-6.33
-3.67
-1.0
-1.67
-0.33
-7.0
1.67
5.67
2.33
-4.0
0.67
-4.67
2.0
-1.67
1.0
5.33
2.33
0.0
-3.67
0.67
3.67
-2.0
1.0
-1.0
5.0
-2.67
-1.0
0.67
-1.33
0.67
1.33
2.0
2.33
-0.33
1.0
1.67
7.0
-1.0
0.0
6.0
1.67
5.67
3.33
7.67
4.0
-0.33
-0.33
3.33
7.67
2.67
-0.67
-2.33
-1.67
7.0
4.67
3.33
-0.33
7.33
6.67
2.33
3.33
-0.33
5.0
6.33
-4.0
5.0
-0.33
6.33
-0.33
12.0
7.33
3.67
6.0
6.33
5.0
5.67
1.33
9.0
6.67
-2.67
12.67
9.67
9.67
6.33
9.33
9.33
2.67
20.0
18.0
34.0
38.67
34.33
18.33
13.67
22.33
8.0
2.67
11.67
2.33
6.33
3.33
20.0
7.0
7.0
5.33
6.33
10.33
12.33
10.67
7.33
10.0
4.67
11.33
15.67
4.0
10.0
10.0
-4.67
4.33
11.0
10.33
11.67
14.0
10.33
15.33
18.33
9.67
55.33
124.67
216.33
272.33
252.0
121.0
33.33
25.0
4.0
14.67
16.67
5.0
8.0
11.33
18.33
19.33
14.0
5.67
5.67
1.0
7.33
14.67
12.0
3.67
1.0
8.0
5.33
0.0
3.0
3.0
4.67
-4.33
1.33
9.33
1.67
12.0
4.33
7.0
7.0
5.0
9.33
4.0
3.0
4.33
16.67
20.0
3.0
-0.33
9.0
8.33
4.67
2.67
13.0
1.0
8.33
2.0
12.67
2.67
1.0
0.33
-2.67
10.67
2.33
7.33
9.33
7.67
15.67
4.0
5.33
-3.33
4.67
-3.67
5.0
-9.0
-4.0
6.67
9.0
1.0
9.67
10.0
-4.0
0.0
0.0
-5.67
1.67
-4.0
7.0
5.0
-0.67
8.0
6.33
2.67
-1.0
1.0
4.33
-1.33
1.33
0.33
-0.33
-0.67
1.33
-2.0
1.0
3.67
4.67
-3.33
0.0
0.67
1.67