File: EDX Back Ups and Old Files/Spectra copy 3.3.23/Samples/High pH BL 25C 4d/6.25.txt
0.0
-27.0
51.67
-21.67
3.33
2.33
-0.33
-0.33
1.0
-0.33
0.0
0.0
1.0
0.67
0.0
0.0
3.0
0.33
-1.67
8.0
0.0
3.67
5.0
2.67
-3.0
2.33
-1.67
8.33
-2.0
4.33
2.0
0.0
-2.33
6.0
3.0
-4.67
3.33
0.33
3.67
-2.67
2.0
1.33
1.33
8.67
4.33
0.67
-1.0
2.0
1.33
7.0
7.0
7.33
6.0
3.67
-3.0
3.67
7.33
3.0
-1.33
-1.67
2.0
4.33
2.67
0.0
3.67
5.67
-2.67
-3.0
-0.33
1.33
2.0
1.33
3.0
2.33
6.33
10.0
3.33
-0.33
0.67
-1.0
-5.0
3.0
2.0
-3.67
3.0
3.67
1.67
0.67
-0.67
2.0
-1.67
5.67
-6.0
5.67
1.0
2.0
2.0
1.0
5.67
1.67
0.33
2.67
3.0
-0.33
-3.33
4.33
1.67
6.67
-2.67
6.67
1.33
3.0
9.67
0.33
7.67
10.33
19.67
16.33
9.33
7.67
8.0
-1.67
-1.0
4.0
2.67
8.33
3.67
3.0
-0.67
8.67
6.0
7.33
-2.0
3.67
-8.67
3.0
9.67
2.33
3.67
13.67
-1.33
14.33
7.33
-4.67
9.67
7.0
11.0
9.0
6.67
17.33
17.33
4.67
5.33
-3.0
2.67
15.67
19.33
11.33
2.33
14.0
4.0
8.0
6.33
14.33
13.33
15.33
11.67
7.33
17.0
18.67
2.33
13.67
2.0
7.0
19.0
4.33
-2.67
12.0
4.33
2.67
8.0
18.33
15.33
21.33
17.67
23.33
42.67
73.33
81.33
96.0
59.0
26.33
16.0
13.0
5.67
2.67
9.0
17.0
12.33
18.33
10.33
20.0
17.67
16.67
11.0
13.33
9.67
10.0
7.67
14.0
7.0
17.33
6.0
4.0
11.0
14.67
20.67
33.33
28.33
13.67
14.0
-0.67
12.0
15.0
8.0
7.33
-3.0
0.0
4.33
12.67
15.0
-2.0
7.67
3.0
9.33
-1.33
6.67
15.0
-3.0
6.33
14.0
11.67
11.67
7.0
-2.67
-8.67
10.67
14.33
9.33
9.33
9.67
12.67
-1.0
2.33
-3.33
13.67
3.33
2.0
-6.0
8.0
4.67
5.0
-2.0
3.67
3.0
-1.0
2.0
-2.0
-2.67
5.67
1.0
5.0
-1.0
-5.67
6.0
5.33
3.67
-2.0
-2.0
3.33
-2.33
-0.67
0.33
-0.33
-1.67
5.33
2.0
-2.0
-2.33
2.67
1.67
-1.0
-0.33
-0.33