File: EDX Back Ups and Old Files/Spectra copy 3.3.23/Samples/High pH BL 25C 4d/6.5.txt
0.0
51.0
-5.33
-8.67
-5.67
1.33
2.67
1.67
1.0
-0.33
1.0
0.0
0.0
-0.33
0.0
1.0
0.0
-1.67
-2.67
11.0
3.0
8.67
7.0
3.67
4.0
6.33
7.33
5.33
-2.0
3.33
7.0
-2.0
2.67
1.0
3.0
0.33
2.33
4.33
0.67
1.33
5.0
0.33
2.33
1.67
1.33
2.67
6.0
3.0
11.33
2.0
8.0
-1.67
-3.0
3.67
4.0
1.67
-3.67
0.0
0.67
-1.67
6.0
4.33
1.67
-7.0
6.67
2.67
3.33
-3.0
7.67
1.33
6.0
-1.67
0.0
6.33
0.33
0.0
1.33
2.67
-3.33
0.0
-3.0
-4.0
2.0
-3.67
2.0
-1.33
-2.33
2.67
-0.67
4.0
1.33
-1.33
0.0
3.67
10.0
0.0
-3.0
1.0
2.67
1.67
1.33
3.67
0.0
-1.33
4.67
4.33
4.67
2.67
-2.67
6.67
-1.67
-1.0
1.67
-2.67
3.67
6.33
32.67
15.33
6.33
5.67
9.0
1.33
6.0
1.0
-2.33
11.33
3.67
5.0
4.33
6.67
2.0
4.33
-2.0
3.67
3.33
7.0
-0.33
2.33
4.67
10.67
3.67
0.33
0.33
2.33
3.67
11.0
12.0
18.0
16.67
15.33
10.33
-2.33
12.33
9.0
6.67
10.67
13.33
6.33
-0.67
5.0
8.0
-1.0
4.33
7.33
7.33
9.33
8.67
3.33
9.0
16.67
9.33
7.67
2.0
7.0
10.0
15.33
2.33
12.0
11.33
14.67
11.0
11.33
9.33
20.33
17.67
31.33
33.67
65.33
93.33
68.0
56.0
26.33
16.0
11.0
11.67
-1.33
14.0
7.0
14.33
16.33
15.33
4.0
9.67
19.67
7.0
5.33
15.67
19.0
7.67
-1.0
11.0
20.33
3.0
-5.0
8.0
15.67
18.67
19.33
42.33
22.67
6.0
0.33
5.0
19.0
4.0
15.33
-1.0
19.0
5.33
17.67
5.0
4.0
5.67
2.0
13.33
-10.33
12.67
10.0
-1.0
3.33
3.0
6.67
-1.33
-4.0
0.33
8.33
12.67
11.33
6.33
8.33
-0.33
17.67
11.0
3.33
-7.33
3.67
-3.67
1.0
-5.0
6.0
7.67
-2.0
1.0
7.67
8.0
3.0
6.0
4.0
9.33
7.67
-1.0
6.0
3.0
1.33
6.0
1.33
3.67
7.0
3.0
-2.67
4.67
-3.67
1.33
6.67
13.33
10.33
-1.0
0.0
2.67
4.67
2.67
-3.0
-3.33
0.67