File: EDX Back Ups and Old Files/Spectra copy 3.3.23/Samples/High pH BL 25C 4d/6.75.txt
0.0
74.0
18.67
-27.67
-6.67
1.33
0.67
-0.33
0.0
0.67
0.0
0.0
2.0
-0.33
-1.0
0.0
2.0
-1.67
0.33
3.0
4.0
4.67
2.0
-0.33
4.0
0.33
-2.67
0.33
4.0
4.33
4.0
3.0
-3.33
6.0
3.0
3.33
6.33
6.33
2.67
-0.67
6.0
-5.67
3.33
2.67
0.33
0.67
8.0
4.0
2.33
8.0
7.0
0.33
5.0
5.67
2.0
0.67
8.33
2.0
-1.33
3.33
0.0
-0.67
5.67
-3.0
0.67
3.67
2.33
0.0
6.67
4.33
1.0
1.33
-1.0
7.33
3.33
3.0
-1.67
1.67
-0.33
3.0
-1.0
-1.0
-2.0
0.33
-2.0
1.67
0.67
0.67
-1.67
2.0
-0.67
2.67
3.0
-0.33
1.0
-3.0
1.0
1.0
2.67
1.67
3.33
-2.33
-1.0
-2.33
4.67
2.33
-0.33
-0.33
-0.67
4.67
5.33
-3.0
-0.33
11.33
6.67
14.33
27.67
23.33
11.33
2.67
11.0
0.33
3.0
1.0
-0.33
0.33
7.67
7.0
6.33
2.67
6.0
3.33
2.0
2.67
2.33
5.0
4.67
1.33
0.67
4.67
-1.33
2.33
1.33
2.33
1.67
10.0
28.0
16.0
19.67
10.33
10.33
11.67
15.33
5.0
11.67
16.67
22.33
10.33
-2.67
15.0
9.0
7.0
5.33
8.33
12.33
6.33
9.67
14.33
14.0
14.67
9.33
8.67
2.0
11.0
5.0
9.33
1.33
9.0
21.33
21.67
5.0
12.33
26.33
15.33
11.67
24.33
46.67
70.33
82.33
83.0
47.0
24.33
21.0
10.0
18.67
5.67
4.0
10.0
8.33
14.33
7.33
14.0
17.67
-0.33
6.0
0.33
10.67
18.0
-4.33
5.0
16.0
11.33
15.0
5.0
6.0
8.67
8.67
26.33
24.33
12.67
3.0
-4.67
13.0
19.0
3.0
11.33
1.0
8.0
11.33
19.67
6.0
3.0
12.67
3.0
15.33
9.67
18.67
15.0
0.0
13.33
-2.0
4.67
0.67
-2.0
-2.67
12.33
9.67
16.33
7.33
8.33
1.67
7.67
12.0
5.33
-5.33
2.67
6.33
4.0
-4.0
6.0
3.67
6.0
1.0
10.67
5.0
3.0
7.0
-3.0
-2.67
3.67
3.0
8.0
-2.0
-1.67
5.0
5.33
4.67
-3.0
-4.0
-0.67
4.67
2.33
2.33
0.67
-2.67
1.33
1.0
6.0
4.67
4.67
1.67
2.0
-1.33
3.67