File: EDX Back Ups and Old Files/Spectra copy 3.3.23/Samples/High pH BL 25C 4d/7.0.txt
0.0
6.0
-52.33
-25.67
-7.67
-3.67
-0.33
-0.33
0.0
-0.33
0.0
1.0
1.0
0.67
2.0
3.0
-1.0
-0.67
2.33
4.0
6.0
5.67
-1.0
2.67
-1.0
-0.67
5.33
0.33
5.0
6.33
-1.0
2.0
-0.33
9.0
4.0
2.33
3.33
2.33
5.67
1.33
6.0
-0.67
0.33
-1.33
0.33
-1.33
7.0
8.0
-2.67
5.0
1.0
10.33
2.0
8.67
-2.0
6.67
-0.67
-2.0
-1.33
-2.67
-3.0
-1.67
2.67
-5.0
3.67
2.67
1.33
1.0
3.67
3.33
3.0
2.33
-2.0
4.33
6.33
1.0
0.33
4.67
1.67
1.0
-2.0
2.0
6.0
-2.67
7.0
1.67
-0.33
-0.33
-0.67
5.0
-3.67
-0.33
-5.0
0.67
-2.0
-6.0
-2.0
1.0
-0.33
2.67
3.33
0.67
6.0
-2.33
4.67
1.33
8.67
-1.33
3.33
0.67
-1.67
-1.0
1.67
3.33
7.67
20.33
28.67
24.33
9.33
9.67
6.0
0.33
1.0
8.0
1.67
5.33
-0.33
-1.0
3.33
4.67
12.0
-1.67
3.0
12.67
5.33
3.0
6.67
5.33
4.67
3.67
1.67
-1.67
1.33
0.33
8.67
3.0
11.0
11.0
21.67
15.33
12.33
6.67
2.33
2.0
-1.33
11.67
10.33
14.33
11.33
10.0
2.0
6.0
8.33
2.33
9.33
1.33
16.67
2.33
5.0
4.67
2.33
15.67
11.0
13.0
9.0
4.33
2.33
10.0
10.33
1.67
19.0
13.33
12.33
13.33
9.67
22.33
36.67
75.33
93.33
83.0
58.0
16.33
17.0
27.0
11.67
9.67
12.0
8.0
13.33
13.33
9.33
10.0
10.67
18.67
7.0
1.33
1.67
10.0
4.67
-5.0
12.0
10.33
4.0
0.0
4.0
8.67
18.67
31.33
25.33
21.67
15.0
12.33
-3.0
20.0
-4.0
5.33
10.0
1.0
12.33
10.67
4.0
5.0
11.67
1.0
6.33
2.67
10.67
8.0
1.0
8.33
5.0
4.67
4.67
4.0
-1.67
8.33
14.67
6.33
-6.67
17.33
11.67
7.67
4.0
5.33
-2.33
15.67
-4.67
3.0
-5.0
0.0
1.67
5.0
0.0
4.67
1.0
-4.0
5.0
5.0
0.33
-0.33
-2.0
4.0
7.0
6.33
13.0
7.33
6.67
0.0
-1.0
3.33
3.67
1.33
3.33
1.67
3.33
2.33
-3.0
3.0
0.67
2.67
-2.33
6.0
-1.33
-1.33