File: EDX Back Ups and Old Files/Spectra copy 3.3.23/Samples/High pH BL 25C 4d/7.75.txt
0.0
71.0
5.67
-8.67
-8.67
-1.67
1.67
0.67
1.0
-0.33
0.0
1.0
0.0
0.67
-1.0
-1.0
-1.0
-0.67
2.33
3.0
6.0
8.67
10.0
1.67
-2.0
2.33
1.33
4.33
4.0
2.33
3.0
3.0
-5.33
8.0
-3.0
6.33
10.33
6.33
-1.33
3.33
0.0
4.33
-4.67
2.67
-0.67
4.67
8.0
-4.0
1.33
5.0
0.0
3.33
4.0
-1.33
-1.0
0.67
2.33
0.0
-0.33
0.33
-1.0
2.33
-1.33
-5.0
-0.33
8.67
-1.67
3.0
1.67
-0.67
6.0
-1.67
-1.0
6.33
7.33
3.0
0.33
0.67
2.67
0.0
-6.0
-3.0
-1.0
-0.67
0.0
2.67
-1.33
1.67
4.33
4.0
-0.67
5.67
-4.0
2.67
2.0
-2.0
-1.0
2.0
-1.33
2.67
3.33
5.67
2.0
-2.33
1.67
-3.67
3.67
-2.33
-3.67
3.67
3.33
2.0
6.67
5.33
3.67
14.33
22.67
23.33
12.33
4.67
4.0
-2.67
2.0
5.0
10.67
6.33
4.67
10.0
1.33
1.67
5.0
-4.67
4.0
-4.33
-2.67
3.0
11.67
3.33
3.67
4.67
1.67
-2.67
0.33
2.33
5.67
19.0
13.0
13.0
14.67
24.33
8.33
10.67
13.33
-6.0
9.67
10.67
6.33
11.33
-0.67
9.0
6.0
9.0
3.33
5.33
11.33
6.33
-1.33
10.33
10.0
16.67
6.33
2.67
8.0
4.0
14.0
0.33
14.33
5.0
14.33
11.67
7.0
11.33
16.33
18.33
12.67
41.33
26.67
83.33
113.33
102.0
57.0
22.33
30.0
3.0
10.67
2.67
10.0
14.0
25.33
15.33
21.33
9.0
8.67
8.67
22.0
3.33
4.67
10.0
9.67
6.0
2.0
12.33
4.0
6.0
-1.0
18.67
12.67
47.33
29.33
12.67
10.0
1.33
2.0
3.0
11.0
1.33
2.0
1.0
2.33
7.67
7.0
-4.0
14.67
7.0
1.33
11.67
7.67
14.0
-2.0
0.33
-5.0
1.67
3.67
3.0
3.33
1.33
4.67
2.33
2.33
5.33
12.67
2.67
14.0
10.33
-2.33
5.67
-2.67
4.0
2.0
-1.0
4.67
6.0
5.0
5.67
4.0
-1.0
-1.0
-2.0
-4.67
0.67
2.0
9.0
9.0
0.33
9.0
1.33
-0.33
2.0
0.0
-2.67
-6.33
0.33
-2.67
3.67
-1.67
-1.67
-3.0
0.0
-1.33
3.67
5.67
-1.0
-4.33
-0.33