File: EDX Back Ups and Old Files/Spectra copy 3.3.23/Samples/High pH BL 25C 4d/8.0.txt
0.0
121.0
2.67
-6.67
-4.67
-0.67
0.67
-0.33
0.0
1.67
0.0
1.0
1.0
0.67
1.0
2.0
3.0
-2.67
-0.67
4.0
1.0
3.67
-2.0
6.67
-1.0
3.33
6.33
0.33
5.0
-4.67
3.0
-1.0
1.67
4.0
1.0
7.33
10.33
2.33
0.67
3.33
-5.0
-2.67
2.33
2.67
3.33
-4.33
6.0
-3.0
-5.67
1.0
2.0
4.33
2.0
5.67
-2.0
-0.33
-0.67
-5.0
-4.33
4.33
1.0
3.33
5.67
-4.0
4.67
-0.33
4.33
-4.0
1.67
5.33
0.0
4.33
3.0
3.33
-0.67
-1.0
-0.67
5.67
1.67
1.0
-3.0
-1.0
8.0
0.33
0.0
-0.33
3.67
3.67
4.33
3.0
-6.67
1.67
-5.0
1.67
4.0
-2.0
4.0
-3.0
1.67
2.67
0.33
-1.33
1.0
-0.33
4.67
1.33
2.67
-1.33
2.33
2.67
3.33
8.0
-0.33
3.33
6.67
8.33
25.67
17.33
10.33
-0.33
6.0
-0.67
7.0
11.0
-2.33
4.33
2.67
2.0
3.33
3.67
7.0
13.33
-5.0
7.67
0.33
2.0
19.67
2.33
0.67
7.67
6.67
0.33
6.33
-1.67
10.67
8.0
4.0
28.0
18.67
18.33
14.33
13.67
12.33
2.0
-1.33
12.67
9.33
7.33
-0.67
7.0
15.0
-2.0
4.33
5.33
10.33
5.33
5.67
8.33
1.0
5.67
1.33
7.67
12.0
8.0
10.0
7.33
9.33
7.0
0.33
-0.33
9.0
12.33
4.33
14.33
9.67
36.33
34.67
80.33
88.33
82.0
44.0
12.33
13.0
8.0
14.67
0.67
5.0
8.0
12.33
4.33
9.33
23.0
13.67
15.67
2.0
11.33
2.67
17.0
3.67
-1.0
22.0
7.33
4.0
2.0
22.0
17.67
13.67
28.33
28.33
1.67
0.0
17.33
3.0
24.0
-2.0
4.33
5.0
5.0
-2.67
14.67
6.0
-5.0
1.67
11.0
6.33
-2.33
5.67
16.0
-2.0
11.33
-4.0
9.67
9.67
8.0
-2.67
4.33
12.67
7.33
2.33
-0.67
5.67
8.67
15.0
10.33
1.67
10.67
-2.67
2.0
-5.0
2.0
2.67
14.0
-2.0
5.67
-5.0
-1.0
5.0
8.0
0.33
7.67
-1.0
4.0
1.0
2.33
8.0
7.33
0.67
7.0
0.0
0.33
-1.33
-1.67
6.33
3.67
-0.67
1.33
1.0
1.0
0.67
3.67
0.67
6.0
-0.33
3.67