File: EDX Back Ups and Old Files/Spectra copy 3.3.23/Samples/High pH BL 25C 4d/9.25.txt
0.0
18.0
8.67
-28.67
7.33
-0.67
-0.33
-0.33
1.0
0.67
0.0
0.0
0.0
0.67
-1.0
0.0
0.0
-2.67
1.33
0.0
4.0
1.67
7.0
6.67
-1.0
9.33
2.33
-2.67
-1.0
-0.67
-1.0
0.0
-1.33
3.0
-1.0
5.33
7.33
-0.67
-3.33
7.33
-1.0
-6.67
5.33
-0.33
2.33
5.67
4.0
6.0
5.33
5.0
4.0
-0.67
3.0
0.67
1.0
3.67
3.33
2.0
-3.33
-1.67
5.0
0.33
1.67
-6.0
4.67
-2.33
-0.67
1.0
1.67
1.33
3.0
5.33
-3.0
-0.67
0.33
2.0
-0.67
-2.33
0.67
-1.0
4.0
0.0
0.0
-1.67
-2.0
5.67
-0.33
4.67
2.33
1.0
-2.67
1.67
-2.0
-0.33
4.0
1.0
2.0
2.0
-0.33
1.67
0.33
0.67
4.0
-3.33
2.67
1.33
-0.33
-3.33
3.33
-0.33
5.33
4.0
-6.33
1.33
14.67
25.33
38.67
23.33
6.33
2.67
3.0
6.33
1.0
6.0
1.67
-0.67
3.67
6.0
4.33
0.67
12.0
-0.67
-2.0
4.67
2.33
-1.0
8.67
3.33
10.67
14.67
2.67
0.33
4.33
-2.67
8.67
14.0
8.0
16.0
19.67
24.33
17.33
5.67
8.33
2.0
2.67
11.67
16.33
5.33
-0.67
18.0
13.0
2.0
3.33
6.33
16.33
1.33
0.67
11.33
12.0
11.67
9.33
17.67
4.0
8.0
7.0
5.33
4.33
11.0
5.33
18.67
3.0
13.33
13.33
14.33
6.67
28.33
45.67
91.33
105.33
94.0
37.0
27.33
21.0
10.0
7.67
2.67
5.0
15.0
4.33
5.33
6.33
5.0
-6.33
13.67
12.0
16.33
12.67
6.0
9.67
4.0
2.0
14.33
14.0
7.0
2.0
18.67
21.67
39.33
40.33
15.67
8.0
5.33
9.0
5.0
7.0
6.33
3.0
4.0
8.33
22.67
4.0
-1.0
5.67
-1.0
4.33
5.67
7.67
14.0
5.0
12.33
-2.0
11.67
-2.33
-4.0
-2.67
7.33
15.67
3.33
5.33
4.33
9.67
1.67
5.0
9.33
2.67
-4.33
2.33
-6.0
-7.0
8.0
7.67
12.0
-3.0
7.67
11.0
-2.0
2.0
1.0
-5.67
11.67
4.0
3.0
0.0
11.33
0.0
2.33
7.67
2.0
0.0
0.33
-5.33
7.33
4.33
3.67
-3.67
-2.67
5.0
2.0
1.67
1.67
0.67
2.0
-0.33
-2.33