File: EDX Back Ups and Old Files/Spectra copy 3.3.23/Samples/High pH BL 25C 4d/9.75.txt
0.0
60.0
-51.33
-39.67
-9.67
-3.67
-0.33
-0.33
1.0
-0.33
0.0
0.0
0.0
0.67
-1.0
1.0
2.0
-0.67
0.33
2.0
3.0
6.67
7.0
0.67
1.0
4.33
2.33
4.33
-2.0
2.33
5.0
-2.0
-0.33
0.0
2.0
6.33
2.33
5.33
4.67
-0.67
-3.0
1.33
1.33
0.67
3.33
4.67
11.0
-4.0
0.33
-3.0
3.0
-0.67
1.0
1.67
-2.0
2.67
-1.67
7.0
1.67
-5.67
6.0
7.33
-0.33
-5.0
0.67
4.67
-2.67
0.0
2.67
0.33
8.0
3.33
0.0
1.33
-0.67
-2.0
-0.67
-2.33
2.67
1.0
-1.0
-3.0
3.0
6.33
0.0
0.67
-0.33
-0.33
1.33
0.0
-2.67
-1.33
-2.0
-0.33
0.0
0.0
4.0
1.0
1.67
1.67
0.33
2.67
3.0
1.67
8.67
-1.67
1.67
3.67
-2.67
6.67
-2.67
2.0
-3.33
0.33
3.67
17.33
35.67
18.33
21.33
5.67
0.0
1.33
-3.0
9.0
1.67
2.33
-0.33
4.0
15.33
11.67
2.0
3.33
0.0
-1.33
4.33
9.0
4.67
8.33
0.67
6.67
5.67
5.33
4.33
7.33
9.67
5.0
6.0
17.0
13.67
22.33
8.33
0.67
12.33
5.0
2.67
8.67
0.33
15.33
7.33
11.0
7.0
7.0
12.33
18.33
3.33
1.33
11.67
8.33
6.0
4.67
14.33
11.67
4.0
10.0
7.0
4.33
9.33
4.0
1.33
9.67
8.0
12.33
17.33
26.33
19.67
22.33
54.67
82.33
114.33
112.0
57.0
32.33
20.0
1.0
13.67
12.67
11.0
2.0
4.33
16.33
9.33
7.0
6.67
4.67
5.0
8.33
6.67
3.0
8.67
12.0
5.0
17.33
17.0
6.0
6.0
22.67
24.67
34.33
43.33
24.67
16.0
12.33
3.0
11.0
6.0
-3.67
13.0
13.0
11.33
21.67
10.0
14.0
8.67
2.0
17.33
3.67
-1.33
-1.0
-4.0
-0.67
2.0
8.67
5.67
1.0
5.33
0.33
8.67
0.33
11.33
7.33
6.67
14.67
4.0
6.33
-0.33
2.67
1.33
-2.0
-4.0
4.0
10.67
5.0
-6.0
-1.33
6.0
2.0
-1.0
6.0
-4.67
1.67
3.0
9.0
-5.0
-2.67
2.0
1.33
0.67
8.0
2.0
5.33
0.67
-0.67
6.33
7.67
2.33
1.33
5.0
6.0
3.67
2.67
4.67
-2.0
0.67
0.67