File: EDX Back Ups and Old Files/Spectra copy 3.3.23/Samples/Low pH SF 25C 6d/10.0.txt
0.0
29.0
24.0
15.33
-0.67
-3.0
-0.33
1.0
1.0
-1.33
0.67
-0.33
-0.67
0.0
1.67
-2.0
2.33
-2.0
-2.0
0.67
-2.0
3.0
1.67
3.0
1.33
8.0
-1.33
7.0
4.67
4.0
-3.0
1.0
4.67
5.0
0.33
-1.0
-0.33
3.0
-0.33
3.0
4.67
0.67
8.67
-2.0
8.67
7.67
0.33
-1.67
3.0
4.67
2.0
0.0
-1.67
2.67
-1.0
1.67
5.0
3.33
3.0
-0.33
-0.33
-3.0
4.67
-0.67
0.67
5.33
4.33
-0.33
3.67
-1.0
-2.0
-2.33
-5.0
-3.33
-1.33
2.67
-5.33
-1.67
-5.0
0.67
2.0
0.33
-0.33
-5.33
-0.67
2.67
-2.67
3.0
-2.67
-3.33
-0.33
1.0
0.0
-3.33
-2.67
-0.33
-3.0
0.33
-3.0
1.67
-3.33
-6.33
-1.0
4.67
0.67
-4.67
-7.0
1.67
-2.33
-1.33
3.33
-3.0
4.0
-1.67
0.0
9.0
0.33
-10.33
1.67
-7.67
-1.33
-0.67
-2.67
-4.67
-3.33
-2.33
-1.33
3.67
2.33
-1.33
-2.33
5.67
6.0
11.33
38.33
54.33
18.0
7.33
2.67
2.67
11.0
28.0
28.0
9.67
3.67
6.0
17.0
21.33
5.0
14.0
31.67
40.67
56.0
80.33
56.67
23.67
35.33
17.33
8.0
9.0
7.67
3.33
4.0
17.33
39.67
33.67
13.33
13.33
51.33
118.33
116.67
91.33
84.67
33.0
17.0
23.0
21.67
25.67
39.67
46.33
32.67
27.33
14.0
9.0
8.33
3.67
6.0
16.33
30.33
28.67
18.67
41.33
9.0
16.67
12.67
15.0
18.33
16.33
7.33
2.0
-1.33
-1.67
4.0
4.0
17.67
16.33
5.0
15.33
6.0
19.0
4.67
5.0
1.33
4.33
7.67
-4.67
6.33
10.0
18.33
15.67
13.67
13.33
-2.67
1.0
1.0
2.67
4.33
-2.0
9.0
22.67
-1.33
-4.33
8.67
8.67
5.33
5.33
4.0
4.67
0.33
6.33
7.33
11.67
2.67
-4.0
-6.67
12.33
8.67
1.0
0.33
-1.67
1.33
2.0
3.67
-5.33
-0.67
4.0
3.67
4.0
-7.33
-2.0
3.33
4.33
-0.67
-0.33
5.67
4.67
-8.67
-5.67
1.33
2.67
0.0
-1.33
6.33
-3.0
3.0
2.33
-5.33
-0.33
5.33
-3.33
4.67
3.0
-2.33
-3.67
-1.0
0.33
-3.33
3.0
-6.33
7.0
-2.33
-2.33
-4.0
4.33