File: EDX Back Ups and Old Files/Spectra copy 3.3.23/Samples/Low pH SF 25C 6d/10.25.txt
0.0
-6.0
-46.0
5.33
-14.67
-3.0
-0.33
0.0
0.0
-0.33
-0.33
-0.33
-0.67
0.0
0.67
-1.0
-0.67
1.0
-2.0
-3.33
10.0
1.0
5.67
-3.0
9.33
9.0
1.67
-1.0
6.67
7.0
1.0
-4.0
2.67
7.0
5.33
5.0
4.67
3.0
-0.33
6.0
0.67
3.67
4.67
0.0
5.67
0.67
8.33
-2.67
3.0
3.67
2.0
1.0
1.33
2.67
-3.0
2.67
1.0
2.33
0.0
2.67
4.67
1.0
-1.33
-6.67
3.67
-0.67
0.33
1.67
0.67
2.0
-3.0
-0.33
2.0
-2.33
-2.33
-1.33
-4.33
6.33
1.0
3.67
5.0
-1.67
-1.33
-1.33
-0.67
0.67
-2.67
-3.0
-4.67
-4.33
-3.33
-5.0
-3.0
2.67
-3.67
-2.33
1.0
-4.67
-6.0
0.67
-2.33
-3.33
0.0
-1.33
-5.33
9.33
-3.0
-1.33
-5.33
5.67
-0.67
1.0
-8.0
-3.67
-6.0
4.0
-3.67
-10.33
-4.33
-7.67
-1.33
1.33
-1.67
-5.67
-0.33
0.67
2.67
-3.33
-4.67
-2.33
-1.33
5.67
3.0
24.33
20.33
15.33
5.0
-4.67
0.67
2.67
12.0
26.0
27.0
15.67
0.67
21.0
19.0
27.33
14.0
7.0
18.67
31.67
51.0
82.33
49.67
25.67
35.33
17.33
15.0
7.0
17.67
2.33
12.0
20.33
19.67
15.67
13.33
8.33
25.33
52.33
179.67
237.33
109.67
27.0
31.0
32.0
41.67
43.67
50.67
41.33
49.67
30.33
12.0
3.0
7.33
3.67
11.0
25.33
26.33
40.67
33.67
27.33
25.0
20.67
34.67
15.0
15.33
32.33
22.33
12.0
2.67
1.33
16.0
12.0
4.67
13.33
14.0
4.33
0.0
-1.0
10.67
11.0
5.33
-0.67
12.67
5.33
13.33
20.0
27.33
15.67
11.67
8.33
-0.67
7.0
6.0
19.67
6.33
8.0
6.0
17.67
11.67
-1.33
4.67
13.67
-6.67
18.33
0.0
-1.33
12.33
0.33
1.33
1.67
-0.33
-4.0
1.33
3.33
4.67
3.0
11.33
2.33
3.33
3.0
14.67
-2.33
5.33
-3.0
2.67
5.0
-4.33
6.0
1.33
3.33
6.33
0.67
-0.33
3.67
8.33
-4.67
1.33
5.67
4.0
4.67
-3.67
-1.0
6.0
3.33
-5.33
14.67
4.33
-0.33
5.67
0.0
-0.33
0.33
-1.0
3.33
3.67
4.0
7.67
4.0
-1.33
-2.33
1.0
3.33