File: EDX Back Ups and Old Files/Spectra copy 3.3.23/Samples/Low pH SF 25C 6d/11.0.txt
0.0
-24.0
65.0
-17.67
-9.67
-4.0
-0.33
1.0
0.0
-0.33
-0.33
-1.33
0.33
-1.0
0.67
0.0
2.33
0.0
-1.0
1.67
8.0
-1.0
2.67
9.0
-0.67
3.0
-2.33
7.0
5.67
15.0
0.0
-4.0
3.67
3.0
2.33
1.0
8.67
1.0
-0.33
8.0
-3.33
1.67
2.67
-3.0
3.67
11.67
1.33
4.33
2.0
-2.33
2.0
2.0
-0.67
2.67
5.0
-1.33
-2.0
0.33
1.0
-1.33
-1.33
-1.0
0.67
2.33
4.67
2.33
0.33
-0.33
-0.33
3.0
-2.0
-2.33
-1.0
0.67
-1.33
1.67
-0.33
-0.67
3.0
4.67
1.0
0.33
-4.33
1.67
3.33
-2.33
-1.67
1.0
-0.67
-2.33
-4.33
0.0
1.0
-0.33
-3.67
-0.33
-3.0
-5.67
-4.0
-5.33
-4.33
-6.33
-2.0
-1.33
0.67
2.33
-3.0
-0.33
-4.33
3.67
6.33
-5.0
-3.0
3.33
-8.0
2.0
1.33
-3.33
-5.33
-6.67
-4.33
7.33
3.33
-7.67
0.67
6.67
0.67
2.67
-2.67
3.67
-3.33
-3.33
8.0
33.33
54.33
30.33
19.0
-1.67
8.67
15.67
12.0
14.0
9.0
18.67
-0.33
10.0
4.0
23.33
25.0
35.0
45.67
48.67
33.0
36.33
34.67
15.67
24.33
30.33
16.0
7.0
13.67
4.33
7.0
13.33
52.67
47.67
23.33
28.33
35.33
134.33
162.67
208.33
130.67
65.0
34.0
30.0
54.67
70.67
61.67
62.33
38.67
25.33
16.0
9.0
8.33
7.67
10.0
20.33
22.33
30.67
33.67
57.33
38.0
28.67
16.67
20.0
11.33
5.33
19.33
2.0
7.67
12.33
3.0
8.0
2.67
15.33
9.0
15.33
17.0
2.0
0.67
3.0
2.33
9.33
10.67
1.33
4.33
25.0
10.33
6.67
20.67
13.33
7.33
1.0
-1.0
17.67
1.33
0.0
-1.0
15.67
-0.33
14.67
12.67
1.67
0.33
9.33
-7.0
-3.33
16.33
6.33
-1.67
0.67
2.67
3.0
-1.67
0.33
-1.33
10.0
3.33
-1.67
5.33
8.0
11.67
-4.33
0.33
5.0
8.67
5.0
-6.33
-5.0
7.33
5.33
-4.67
0.67
-2.33
0.67
-1.67
4.33
6.33
5.67
6.0
5.67
-2.67
0.0
7.0
-2.67
-1.33
0.67
1.33
3.67
5.67
4.0
0.67
1.33
3.0
-0.67
1.67
4.0
1.67
2.0
-5.33
-2.33
3.0
1.33