File: EDX Back Ups and Old Files/Spectra copy 3.3.23/Samples/Low pH SF 25C 6d/11.25.txt
0.0
-30.0
-44.0
23.33
-12.67
-5.0
0.67
0.0
1.0
-1.33
-0.33
-1.33
-0.67
0.0
1.67
0.0
0.33
2.0
-6.0
1.67
3.0
-2.0
-3.33
6.0
4.33
1.0
-1.33
3.0
7.67
6.0
-4.0
3.0
11.67
6.0
3.33
5.0
6.67
5.0
2.67
5.0
-0.33
0.67
0.67
-1.0
4.67
2.67
6.33
0.33
3.0
-1.33
3.0
9.0
1.33
2.67
1.0
-1.33
0.0
0.33
-6.0
-3.33
5.67
5.0
0.67
-5.67
2.67
2.33
3.33
-0.33
3.67
0.0
-1.0
-3.33
9.0
-5.33
0.67
3.67
-3.33
4.33
3.0
3.67
-2.0
-1.67
-0.33
2.67
4.33
-4.33
3.33
0.0
2.33
-6.33
-4.33
-3.0
-1.0
1.67
-4.67
-1.33
-2.0
-2.67
4.0
-5.33
2.67
1.67
1.0
-4.33
-4.33
-0.67
0.0
-1.33
-6.33
4.67
-0.67
-5.0
-2.0
-1.67
2.0
-2.0
-3.67
-6.33
-0.33
-10.67
-4.33
2.33
0.33
4.33
-3.33
1.67
5.67
8.67
-2.67
7.67
-4.33
-0.33
10.0
38.33
31.33
8.33
7.0
-4.67
14.67
3.67
9.0
15.0
13.0
4.67
-1.33
2.0
11.0
21.33
28.0
65.0
51.67
39.67
46.0
48.33
48.67
24.67
25.33
13.33
11.0
13.0
13.67
11.33
12.0
11.33
30.67
31.67
27.33
12.33
64.33
154.33
257.67
176.33
108.67
56.0
44.0
31.0
45.67
85.67
56.67
56.33
29.67
23.33
13.0
10.0
7.33
0.67
13.0
26.33
33.33
33.67
36.67
69.33
34.0
24.67
19.67
13.0
20.33
18.33
9.33
3.0
1.67
3.33
14.0
-8.0
15.67
9.33
7.0
2.33
6.0
12.0
12.67
6.0
4.33
5.33
-4.33
-2.67
11.33
12.0
14.33
11.67
6.67
13.33
15.33
15.0
12.0
9.67
7.33
-3.0
7.0
2.67
20.67
7.67
7.67
-2.33
0.33
10.33
5.0
-0.33
9.33
15.33
-2.67
7.67
1.67
6.0
-0.67
7.33
-0.33
-1.0
16.33
2.33
-10.67
9.0
-4.33
1.67
-1.67
-6.0
1.67
3.0
-5.33
-1.0
5.33
-6.67
-5.67
0.67
0.67
3.67
-2.67
5.33
5.33
5.67
4.0
1.67
-6.67
4.0
-3.0
-4.67
-0.33
2.67
6.33
-5.33
0.67
5.0
1.67
-0.67
1.0
2.33
5.67
1.0
-0.33
2.0
-2.33
1.67
0.0
-0.67