File: EDX Back Ups and Old Files/Spectra copy 3.3.23/Samples/Low pH SF 25C 6d/11.5.txt
0.0
0.0
18.0
-14.67
5.33
-2.0
-0.33
0.0
0.0
-0.33
-0.33
-1.33
-0.67
1.0
0.67
-1.0
0.33
-1.0
-3.0
1.67
1.0
-2.0
1.67
3.0
2.33
-1.0
1.67
-3.0
3.67
1.0
-5.0
-2.0
8.67
1.0
4.33
-5.0
4.67
5.0
-3.33
3.0
4.67
2.67
0.67
6.0
0.67
1.67
5.33
-1.67
4.0
2.67
7.0
-1.0
-0.67
2.67
8.0
-0.33
-1.0
8.33
0.0
6.67
-0.33
-3.0
-1.33
-2.67
1.67
-2.67
1.33
-2.33
-0.33
-2.0
-5.0
4.67
0.0
-5.33
-2.33
1.67
-4.33
-1.67
2.0
-1.33
5.0
1.33
-5.33
-1.33
-2.67
-3.33
1.33
0.0
-1.67
-1.33
-1.33
-1.0
-5.0
-0.33
-2.67
2.67
-2.0
-1.67
-4.0
0.67
-4.33
-2.33
6.0
-4.33
-1.33
-0.67
-5.0
-0.33
-0.33
6.67
-0.67
-1.0
-7.0
-2.67
-5.0
2.0
-1.67
-3.33
-4.33
-7.67
-8.33
-1.67
-2.67
-5.67
-5.33
0.67
-2.33
3.67
2.33
4.67
1.67
-4.33
3.0
56.33
90.33
57.33
7.0
0.33
2.67
1.67
3.0
9.0
10.0
10.67
0.67
-3.0
19.0
22.33
62.0
63.0
93.67
79.67
44.0
48.33
66.67
37.67
37.33
22.33
12.0
7.0
8.67
6.33
3.0
9.33
30.67
6.67
12.33
13.33
55.33
206.33
247.67
96.33
62.67
34.0
38.0
31.0
31.67
30.67
46.67
33.33
41.67
32.33
12.0
13.0
5.33
10.67
6.0
21.33
23.33
35.67
34.67
40.33
24.0
26.67
27.67
14.0
13.33
13.33
6.33
-1.0
12.67
9.33
9.0
14.0
6.67
9.33
6.0
4.33
-1.0
2.0
23.67
-1.0
-6.67
7.33
3.67
5.33
6.33
8.0
13.33
11.67
3.67
14.33
6.33
-3.0
13.0
12.67
7.33
-2.0
9.0
12.67
13.67
-7.33
1.67
-5.33
16.33
6.33
-3.0
-7.33
25.33
10.33
1.33
7.67
-1.33
-5.0
6.33
-0.67
2.67
-4.0
-6.67
1.33
-1.67
10.0
9.67
1.67
1.33
0.0
2.67
-4.0
-3.33
0.0
5.33
10.33
-2.67
0.67
-0.33
-2.33
-5.67
-2.67
6.33
3.67
6.0
-1.33
6.33
4.0
-1.0
-2.67
2.67
-1.33
0.33
-5.33
2.67
1.0
0.67
6.33
-5.0
-2.67
1.67
8.0
-4.33
1.0
-3.33
0.67
1.0
3.33