File: EDX Back Ups and Old Files/Spectra copy 3.3.23/Samples/Low pH SF 25C 6d/6.0.txt
0.0
-69.0
61.0
-9.67
-11.67
-3.0
0.67
0.0
0.0
-1.33
0.67
-0.33
-0.67
-1.0
0.67
1.0
0.33
-1.0
-1.0
1.67
4.0
1.0
5.67
2.0
7.33
5.0
0.67
3.0
11.67
8.0
-3.0
-3.0
4.67
5.0
8.33
1.0
0.67
9.0
5.67
3.0
3.67
1.67
0.67
5.0
4.67
1.67
5.33
-1.67
1.0
2.67
10.0
0.0
1.33
2.67
4.0
-0.33
1.0
2.33
-6.0
2.67
1.67
-3.0
5.67
0.33
5.67
2.33
4.33
-0.33
4.67
0.0
-3.0
6.67
-2.0
-2.33
-0.33
6.67
-0.33
3.33
5.0
4.67
4.0
-3.67
0.67
0.67
2.33
0.67
1.33
3.0
0.33
-1.33
-4.33
-2.0
6.0
-3.33
-1.67
-1.33
-6.0
-1.67
-6.0
-2.33
0.67
-2.33
4.0
1.67
-2.33
1.33
-1.0
1.67
-0.33
1.67
0.33
2.0
-4.0
-3.67
-7.0
1.0
-3.67
-3.33
-9.33
-1.67
-7.33
2.33
2.33
-5.67
3.67
-6.33
-4.33
0.67
-8.67
-5.33
-7.33
-3.33
3.0
13.33
5.33
11.33
11.0
2.33
5.67
2.67
7.0
28.0
28.0
9.67
-2.33
4.0
16.0
5.33
1.0
4.0
8.67
15.67
10.0
19.33
12.67
9.67
31.33
13.33
14.0
9.0
-2.33
-1.67
7.0
20.33
27.67
10.67
15.33
14.33
17.33
24.33
70.67
85.33
43.67
12.0
18.0
12.0
15.67
22.67
31.67
30.33
17.67
8.33
19.0
10.0
10.33
13.67
9.0
13.33
18.33
20.67
15.67
44.33
30.0
13.67
25.67
19.0
17.33
4.33
4.33
3.0
13.67
13.33
8.0
10.0
1.67
6.33
18.0
5.33
16.0
12.0
5.67
1.0
7.33
12.33
4.67
11.33
10.33
17.0
14.33
8.67
-0.33
20.33
3.33
-2.0
15.0
8.67
8.33
-4.0
25.0
15.67
1.67
3.67
-1.33
1.67
6.33
7.33
3.0
-8.33
11.33
-2.67
-3.67
6.67
8.67
-4.0
12.33
8.33
-4.33
-1.0
17.33
-0.67
-1.67
10.0
9.67
2.67
-3.67
5.0
6.67
9.0
-5.33
4.0
3.33
4.33
-6.67
8.67
-5.33
5.67
-4.67
-8.67
8.33
9.67
3.0
5.67
2.33
4.0
6.0
-4.67
-3.33
9.67
1.33
-1.33
9.67
6.0
2.67
3.33
6.0
-2.67
0.67
-1.0
1.67
5.0
0.67
-4.33
1.0
0.33