File: EDX Back Ups and Old Files/Spectra copy 3.3.23/Samples/Low pH SF 25C 6d/6.5.txt
0.0
-19.0
2.0
-3.67
2.33
1.0
-0.33
1.0
0.0
-1.33
1.67
-1.33
2.33
0.0
2.67
0.0
2.33
-1.0
-5.0
4.67
7.0
1.0
0.67
5.0
-0.67
9.0
-5.33
7.0
8.67
7.0
-4.0
0.0
2.67
9.0
3.33
2.0
5.67
15.0
-0.33
0.0
7.67
-0.33
2.67
4.0
0.67
6.67
3.33
-0.67
6.0
-2.33
5.0
-1.0
2.33
4.67
0.0
2.67
6.0
8.33
-2.0
2.67
6.67
-2.0
6.67
-1.67
3.67
4.33
2.33
-1.33
4.67
-2.0
3.0
1.67
-2.0
-2.33
-0.33
-0.33
-1.33
1.33
3.0
-1.33
2.0
2.33
-0.33
1.67
-2.67
-1.33
-0.67
-1.0
2.33
-5.33
1.67
0.0
-3.0
-3.33
-3.67
3.67
-1.0
-3.67
-6.0
-4.33
-2.33
-0.33
-2.0
1.67
-3.33
-0.67
-6.0
-2.33
-6.33
-2.33
1.33
0.0
-4.0
5.33
-9.0
3.0
-4.67
-4.33
-3.33
-5.67
-4.33
6.33
-1.67
-4.67
0.67
-1.33
-4.33
0.67
5.33
-3.33
1.67
1.67
5.0
8.33
6.33
3.33
3.0
0.33
5.67
0.67
8.0
16.0
8.0
1.67
-4.33
-1.0
4.0
-1.67
5.0
13.0
10.67
7.67
13.0
10.33
1.67
3.67
12.33
14.33
4.0
10.0
7.67
0.33
9.0
14.33
22.67
30.67
3.33
10.33
12.33
42.33
38.67
86.33
40.67
18.0
21.0
30.0
35.67
32.67
38.67
39.33
34.67
22.33
2.0
22.0
2.33
8.67
10.0
5.33
19.33
21.67
17.67
17.33
11.0
-1.33
7.67
14.0
11.33
23.33
17.33
6.0
0.67
16.33
10.0
8.0
7.67
9.33
7.0
1.33
8.0
-1.0
4.67
12.0
12.33
8.33
7.67
12.33
9.33
5.0
-2.67
3.67
7.67
10.33
11.33
11.0
25.0
17.67
19.33
-5.0
2.0
12.67
3.67
-0.33
10.67
8.67
10.33
20.33
3.0
8.67
6.33
7.33
13.33
12.67
-1.33
-7.0
-1.67
4.33
-4.33
11.0
-6.67
9.33
4.33
15.0
9.67
4.67
3.33
12.0
1.67
10.0
7.67
-1.0
-0.67
7.33
-0.67
-4.33
-8.33
12.67
-1.67
3.33
8.33
9.67
0.0
3.67
-3.67
-2.0
-1.0
-3.67
5.67
1.67
5.33
2.67
1.67
8.0
2.67
3.33
1.0
-0.67
3.67
5.0
1.67
3.0
0.67
2.67
5.0
3.33