File: EDX Back Ups and Old Files/Spectra copy 3.3.23/Samples/Low pH SF 25C 6d/7.75.txt
0.0
-74.0
0.0
24.33
-4.67
0.0
-0.33
3.0
2.0
-0.33
0.67
-0.33
0.33
0.0
0.67
-2.0
3.33
-1.0
-3.0
3.67
0.0
2.0
-1.33
5.0
4.33
2.0
-0.33
5.0
4.67
8.0
-1.0
-2.0
7.67
-3.0
4.33
5.0
7.67
11.0
2.67
5.0
1.67
3.67
1.67
0.0
4.67
5.67
7.33
4.33
4.0
-0.33
6.0
4.0
2.33
4.67
1.0
9.67
2.0
3.33
-3.0
-0.33
6.67
1.0
8.67
0.33
-1.33
4.33
-2.67
2.67
1.67
2.0
-3.0
2.67
0.0
-3.33
-0.33
-2.33
-3.33
0.33
3.0
2.67
1.0
-2.67
-4.33
2.67
1.33
-2.33
-0.67
2.0
-3.67
-2.33
2.67
-2.0
-5.0
0.67
-3.67
-1.33
-3.0
-1.67
-3.0
-2.33
4.67
-5.33
-1.0
1.67
-5.33
5.33
4.0
0.67
-3.33
-1.33
1.33
-3.0
-10.0
-0.67
-4.0
-3.0
3.33
-7.33
-6.33
-13.67
-2.33
-1.67
1.33
-1.67
-9.33
3.67
-0.33
2.67
0.33
6.67
-1.33
-8.33
1.0
11.33
32.33
9.33
-3.0
1.33
1.67
3.67
7.0
20.0
9.0
11.67
-1.33
6.0
10.0
4.33
11.0
12.0
15.67
34.67
30.0
19.33
17.67
6.67
21.33
26.33
6.0
5.0
4.67
10.33
12.0
17.33
25.67
6.67
3.33
14.33
39.33
107.33
278.67
439.33
176.67
49.0
18.0
28.0
22.67
29.67
30.67
37.33
32.67
23.33
21.0
8.0
8.33
4.67
4.0
17.33
18.33
29.67
29.67
41.33
10.0
24.67
20.67
26.0
33.33
25.33
18.33
-4.0
11.67
6.33
21.0
8.0
17.67
9.33
12.0
-4.67
10.0
17.0
17.67
14.0
0.33
23.33
18.67
5.33
7.33
6.0
6.33
12.67
7.67
6.33
15.33
5.0
15.0
16.67
19.33
14.0
11.0
7.67
16.67
6.67
11.67
1.67
7.33
3.33
13.0
1.67
6.33
7.33
0.33
1.67
-0.33
5.0
4.33
-3.67
2.67
7.0
-0.67
5.33
2.33
11.0
3.67
-3.33
-2.67
5.0
-2.33
0.0
-6.33
3.0
5.33
3.33
-4.67
-2.33
-5.33
5.67
-3.67
7.33
6.33
11.67
7.0
-0.33
0.33
3.0
3.0
-0.67
1.67
0.67
9.33
1.67
3.67
-1.0
1.67
1.33
1.0
3.33
-2.33
2.0
1.67
0.0
-0.33
-0.33
0.0
1.33