File: EDX Back Ups and Old Files/Spectra copy 3.3.23/Samples/Low pH SF 25C 6d/9.0.txt
0.0
-22.0
-29.0
10.33
8.33
0.0
0.67
0.0
2.0
-0.33
-0.33
0.67
-0.67
1.0
0.67
-1.0
0.33
-1.0
-2.0
3.67
5.0
3.0
4.67
8.0
8.33
0.0
1.67
3.0
8.67
6.0
-1.0
-2.0
-0.33
9.0
3.33
2.0
4.67
10.0
-1.33
3.0
3.67
-2.33
1.67
2.0
3.67
3.67
4.33
-2.67
3.0
4.67
4.0
5.0
0.33
5.67
6.0
4.67
-4.0
-2.67
-4.0
4.67
7.67
-2.0
2.67
-2.67
2.67
-1.67
-0.67
2.67
1.67
0.0
-5.0
-1.33
-1.0
-1.33
2.67
0.67
-0.33
-1.67
3.0
-0.33
4.0
-5.67
2.67
-2.33
0.33
-2.33
5.33
-2.0
-0.67
2.67
-0.33
-2.0
2.0
-3.33
-3.67
4.67
-3.0
0.33
0.0
-4.33
0.67
-1.33
-4.0
-3.33
-0.33
-2.67
-2.0
0.67
-2.33
-0.33
4.33
-3.0
-1.0
3.33
-6.0
2.0
-2.67
-10.33
-6.33
-4.67
-0.33
-4.67
-7.67
-6.67
-1.33
-1.33
-5.33
8.67
6.33
8.67
-9.33
-3.33
-1.0
12.33
58.33
38.33
9.0
-1.67
7.67
6.67
16.0
39.0
37.0
19.67
4.67
4.0
3.0
11.33
19.0
18.0
25.67
23.67
20.0
25.33
12.67
10.67
18.33
15.33
16.0
10.0
16.67
1.33
6.0
22.33
20.67
11.67
13.33
21.33
21.33
53.33
123.67
291.33
238.67
83.0
25.0
23.0
20.67
39.67
35.67
27.33
21.67
13.33
10.0
17.0
17.33
11.67
8.0
29.33
26.33
48.67
18.67
23.33
19.0
10.67
15.67
26.0
11.33
16.33
5.33
14.0
-5.33
8.33
11.0
8.0
12.67
9.33
17.0
5.33
9.0
-6.0
7.67
12.0
3.33
6.33
14.67
12.33
14.33
10.0
14.33
4.67
3.67
0.33
7.33
-1.0
4.0
-1.33
14.33
1.0
2.0
7.67
3.67
5.67
-12.33
9.67
-1.67
19.33
10.0
3.67
4.33
1.33
-7.67
2.67
-5.33
-3.0
4.33
-4.67
4.67
-1.0
-5.67
-4.67
7.33
2.0
7.67
2.67
-6.67
1.0
-2.33
-1.0
-6.33
-2.0
2.33
7.33
1.33
-5.33
3.67
2.67
-2.67
1.33
1.33
2.67
9.0
1.67
-6.67
4.0
-2.0
-1.67
-2.33
-3.33
0.33
-3.33
3.67
2.0
11.67
0.33
-6.0
2.33
-0.33
5.0
-1.33
4.0
-2.33
-1.33
5.0
4.33