File: EDX Back Ups and Old Files/Spectra copy 3.3.23/Samples/Low pH SF 60C 2d/10.0.txt
0.0
27.67
41.33
-5.67
18.33
0.0
0.0
-0.33
-0.67
-0.33
-0.67
-0.67
-0.33
-0.67
0.33
-0.33
0.33
-0.33
-2.0
0.67
0.67
1.67
-5.33
-1.67
-3.67
-2.67
2.0
-1.33
2.0
4.33
-0.33
1.0
7.0
3.0
-8.67
-2.33
4.67
-2.67
3.33
4.33
0.67
4.67
-5.67
-2.67
0.67
1.0
3.33
5.0
-3.0
1.0
-2.67
-6.67
-1.0
5.0
-1.0
3.67
3.0
4.67
-0.67
3.0
-1.67
2.67
-2.33
1.33
3.67
-0.33
0.33
0.0
1.33
-0.33
1.33
1.33
2.33
1.67
0.33
-0.33
1.33
1.67
-2.33
-2.0
-1.33
-5.33
0.33
1.0
1.33
-1.0
3.33
-0.67
-1.67
1.67
-3.33
-2.67
0.33
4.0
-6.67
2.0
-1.0
-0.33
1.67
-0.67
-2.33
-0.67
-3.0
-2.67
-0.33
-4.0
-10.33
0.67
-6.33
-6.33
-4.67
-1.0
-6.0
-2.0
-1.33
9.33
-1.33
-0.67
-4.67
2.67
-4.33
1.67
-5.67
-5.67
-5.33
-2.33
4.33
-1.67
-4.67
-0.67
2.67
8.67
22.67
35.0
22.0
20.67
4.67
1.67
9.33
14.0
22.67
15.33
19.67
16.0
8.67
7.0
8.33
8.33
23.67
6.0
20.67
54.33
33.33
30.33
18.33
23.0
28.67
39.33
5.0
6.33
4.67
1.33
10.0
16.67
13.33
25.0
16.0
11.0
20.67
21.33
54.0
74.33
48.67
19.33
14.33
15.67
28.0
45.67
82.67
93.67
45.0
37.0
14.33
5.33
7.67
-1.0
11.0
19.33
25.33
33.67
24.0
21.0
27.67
24.67
24.0
24.67
17.33
13.33
8.67
4.67
8.0
14.67
19.0
13.33
1.33
9.0
0.33
12.33
1.33
-0.67
1.67
-4.33
3.33
5.33
14.0
-14.0
2.67
13.0
-7.33
9.67
21.0
11.33
15.67
9.0
27.67
16.67
7.0
12.33
9.67
11.0
8.0
9.67
0.33
3.0
-1.33
-2.67
4.33
3.0
1.0
3.0
2.0
4.0
7.33
-5.67
-4.67
5.0
-1.0
-11.0
1.0
-1.33
2.0
15.67
-1.0
1.0
-1.0
5.0
-10.0
7.67
-1.67
9.33
5.0
3.33
3.67
-5.33
5.33
0.0
9.33
13.33
0.67
4.33
2.33
6.33
0.0
3.33
10.67
-3.33
1.0
-7.67
-3.0
-4.33
-5.33
4.67
-3.0
-0.33
3.0
2.67
-1.0
-0.33
-0.33
0.0
2.33
4.33
7.67
0.33