File: EDX Back Ups and Old Files/Spectra copy 3.3.23/Samples/Low pH SF 60C 2d/10.25.txt
0.0
-40.33
31.33
-10.67
7.33
2.0
-1.0
-0.33
-0.67
0.67
-0.67
0.33
-0.33
-0.67
-1.67
-0.33
4.33
0.67
-1.0
0.67
-0.33
2.67
-1.33
-3.67
0.33
-0.67
1.0
3.67
3.0
1.33
0.67
0.0
3.0
-2.0
4.33
4.67
5.67
0.33
0.33
7.33
2.67
-1.33
0.33
4.33
2.67
8.0
2.33
-3.0
-3.0
2.0
-2.67
-2.67
-1.0
2.0
6.0
-0.33
0.0
3.67
2.33
6.0
-3.67
5.67
-0.33
-0.67
3.67
1.67
3.33
0.0
4.33
2.67
0.33
1.33
-3.67
2.67
-0.67
1.67
-3.67
3.67
2.67
1.0
0.67
1.67
8.33
1.0
3.33
-1.0
2.33
2.33
-1.67
0.67
-0.33
-2.67
-2.67
-4.0
-4.67
-2.0
-1.0
-2.33
-4.33
-7.67
-5.33
-1.67
-2.0
-1.67
-4.33
2.0
-11.33
0.67
-1.33
-4.33
1.33
-2.0
-1.0
1.0
1.67
3.33
-1.33
1.33
-0.67
-7.33
-0.33
-2.33
-0.67
2.33
0.67
0.67
-0.67
-5.67
-1.67
2.33
-0.33
3.67
17.67
26.0
24.0
33.67
22.67
2.67
7.33
17.0
21.67
29.33
37.67
12.0
0.67
18.0
8.33
17.33
12.67
19.0
19.67
34.33
32.33
33.33
22.33
15.0
9.67
20.33
11.0
11.33
4.67
3.33
9.0
22.67
18.33
1.0
7.0
11.0
21.67
68.33
134.0
116.33
60.67
31.33
32.33
38.67
41.0
60.67
72.67
80.67
41.0
17.0
13.33
-2.67
14.67
18.0
24.0
30.33
16.33
29.67
15.0
36.0
42.67
7.67
14.0
22.67
17.33
21.33
14.67
11.67
15.0
18.67
10.0
12.33
-5.67
14.0
8.33
17.33
9.33
4.33
-2.33
5.67
15.33
14.33
-1.0
-5.0
15.67
6.0
23.67
11.67
5.0
-2.67
18.67
12.0
12.67
2.67
7.0
8.33
12.67
13.0
8.0
8.67
1.33
6.0
-1.33
-5.67
-0.67
2.0
2.0
-1.0
-5.0
-2.0
8.33
3.33
-5.67
8.0
-5.0
2.0
0.0
8.67
7.0
15.67
1.0
-2.0
0.0
6.0
-4.0
13.67
-3.67
25.33
5.0
9.33
-5.33
1.67
-5.67
-1.0
-1.67
3.33
-5.33
3.33
2.33
8.33
-3.0
10.33
-6.33
6.67
-1.0
-5.67
11.0
-2.33
-3.33
-3.33
1.0
-1.33
7.0
4.67
-1.0
1.67
1.67
0.0
3.33
2.33
0.67
3.33