File: EDX Back Ups and Old Files/Spectra copy 3.3.23/Samples/Low pH SF 60C 2d/11.0.txt
0.0
3.67
-72.67
-19.67
2.33
-1.0
-1.0
0.67
-0.67
-0.33
-0.67
0.33
-0.33
-0.67
-0.67
0.67
-0.67
-0.33
-2.0
-2.33
3.67
-2.33
-0.33
7.33
0.33
1.33
-6.0
1.67
7.0
-4.67
-2.33
4.0
6.0
1.0
4.33
1.67
0.67
4.33
-3.67
4.33
2.67
2.67
-4.67
3.33
1.67
3.0
0.33
2.0
-1.0
1.0
-0.67
0.33
6.0
2.0
4.0
5.67
5.0
-2.33
2.33
2.0
-0.67
3.67
-2.33
1.33
-2.33
1.67
4.33
0.0
10.33
0.67
4.33
-1.67
-2.67
1.67
3.33
-2.33
-4.67
-0.33
2.67
2.0
1.67
2.67
-1.67
1.0
-0.67
-3.0
1.33
1.33
-8.67
-0.33
-0.33
-2.67
-2.67
-3.0
-3.67
1.0
1.0
2.67
-4.33
-3.67
1.67
2.33
-2.0
-0.67
-0.33
-6.0
-12.33
-1.33
-0.33
-3.33
-8.67
-3.0
-1.0
-5.0
-2.33
-0.67
-6.33
4.33
-1.67
-3.33
-2.33
1.67
1.33
-1.67
2.67
-7.33
-3.67
-2.67
1.33
2.33
0.67
12.67
9.67
53.0
42.0
12.67
1.67
9.67
8.33
11.0
33.67
72.33
43.67
8.0
12.67
11.0
9.33
19.33
5.67
22.0
23.67
65.33
71.33
52.33
22.33
28.0
29.67
24.33
17.0
8.33
6.67
11.33
30.0
35.67
27.33
17.0
18.0
15.0
20.67
80.33
161.0
177.33
114.67
19.33
43.33
56.67
85.0
75.67
68.67
41.67
32.0
23.0
11.33
2.33
3.67
4.0
13.0
20.33
23.33
31.67
38.0
34.0
24.67
17.67
15.0
25.67
32.33
19.33
11.67
7.67
12.0
6.67
12.0
2.33
5.33
11.0
1.33
13.33
1.33
13.33
-0.33
13.67
3.33
18.33
11.0
2.0
3.67
-6.0
6.67
12.67
5.0
-1.67
3.67
-12.0
3.67
10.67
5.0
2.33
18.67
7.0
4.0
10.67
9.33
2.0
0.67
-9.67
12.33
-4.0
5.0
2.0
-17.0
2.0
5.33
3.33
6.33
6.0
5.0
-12.0
7.0
0.67
-2.0
2.67
4.0
-4.0
2.0
2.0
0.0
0.67
2.33
8.33
9.0
1.33
0.67
-4.33
1.33
-2.0
2.33
4.33
4.67
-1.67
2.33
-6.67
1.0
7.33
-4.33
0.67
-7.0
3.33
-5.0
2.67
-2.33
0.67
3.0
4.67
-5.0
3.67
6.0
0.67
3.67
-4.0
8.33
-0.67
-3.33
0.33