File: EDX Back Ups and Old Files/Spectra copy 3.3.23/Samples/Low pH SF 60C 2d/6.0.txt
0.0
124.67
31.33
9.33
3.33
0.0
-1.0
0.67
-0.67
1.67
0.33
0.33
1.67
-0.67
1.33
-0.33
0.33
-0.33
2.0
2.67
0.67
8.67
-0.33
1.33
1.33
7.33
5.0
7.67
8.0
0.33
4.67
-1.0
3.0
0.0
-1.67
0.67
4.67
9.33
4.33
0.33
-1.33
10.67
-3.67
9.33
5.67
2.0
8.33
3.0
7.0
3.0
-1.67
-1.67
-2.0
7.0
6.0
2.67
11.0
3.67
4.33
8.0
-2.67
2.67
8.67
-0.67
-1.33
2.67
1.33
3.0
5.33
2.67
-0.67
2.33
0.33
2.67
-1.67
2.67
2.33
2.67
8.67
3.0
-2.33
1.67
-3.67
1.0
3.33
-1.0
4.33
4.33
-0.67
2.67
-1.33
0.33
-4.67
-2.0
-5.67
0.0
-1.0
-3.33
-3.33
-4.67
-3.33
4.33
-2.0
-1.67
0.67
2.0
-7.33
-3.33
-4.33
-4.33
-7.67
4.0
-3.0
-3.0
-1.33
-6.67
-1.33
-2.67
-6.67
4.67
-6.33
0.67
-5.67
-2.67
-0.33
-6.33
-2.67
-9.67
-2.67
-4.67
5.67
8.67
10.67
13.0
15.0
6.67
1.67
0.67
6.33
-5.0
-3.33
17.33
24.67
9.0
8.67
-4.0
0.33
4.33
12.67
9.0
7.67
4.33
4.33
18.33
9.33
13.0
24.67
11.33
10.0
2.33
3.67
13.33
14.0
20.67
9.33
16.0
11.0
15.0
6.67
21.33
39.0
57.33
35.67
30.33
16.33
14.67
30.0
31.67
43.67
44.67
30.0
26.0
10.33
9.33
14.67
14.0
12.0
6.33
5.33
25.67
16.0
22.0
12.67
4.67
17.0
14.67
16.33
11.33
1.67
5.67
7.0
9.67
8.0
13.33
10.33
4.0
8.33
11.33
0.33
12.33
7.67
7.67
2.33
12.33
7.0
5.0
11.67
-6.0
-0.33
5.67
4.0
9.33
13.67
9.0
6.67
8.67
4.0
3.33
14.67
3.0
14.0
12.67
4.33
-3.0
8.67
13.33
-5.67
-1.0
5.0
11.0
-9.0
1.0
13.33
-3.67
3.33
0.0
-9.0
-3.0
0.0
5.67
7.0
6.67
-4.0
0.0
2.0
3.0
-1.0
3.67
0.33
-3.67
3.0
6.33
-0.33
11.67
-3.67
0.0
2.33
1.33
-1.33
16.33
4.33
2.33
-1.0
8.33
-1.33
5.67
10.0
-7.67
4.0
0.67
-0.33
12.67
9.0
0.67
3.0
2.67
1.0
0.67
6.67
-4.0
1.33
0.33
5.67
5.33