File: EDX Back Ups and Old Files/Spectra copy 3.3.23/Samples/Low pH SF 60C 2d/7.0.txt
0.0
104.67
10.33
-11.67
6.33
1.0
-1.0
-0.33
-0.67
0.67
0.33
-0.67
-0.33
0.33
-0.67
0.67
-0.67
-1.33
0.0
2.67
-3.33
3.67
-4.33
7.33
3.33
5.33
2.0
-5.33
2.0
-2.67
1.67
1.0
6.0
0.0
-3.67
5.67
-0.33
-2.67
6.33
1.33
-2.33
7.67
-5.67
-0.67
-2.33
4.0
4.33
-1.0
3.0
5.0
5.33
-3.67
-3.0
-2.0
1.0
0.67
3.0
2.67
4.33
1.0
-1.67
2.67
2.67
-0.67
-2.33
3.67
-1.67
-1.0
4.33
1.67
4.33
8.33
-2.67
3.67
3.33
-0.33
-0.67
6.67
1.67
1.0
7.67
-0.33
1.33
2.0
2.33
0.0
4.33
1.33
-3.67
0.67
3.67
-4.67
1.33
-3.0
-2.67
1.0
-1.0
-0.33
-3.33
-2.67
-2.33
-0.67
1.0
1.33
-2.33
-1.0
-10.33
-4.33
-4.33
-1.33
-10.67
-1.0
-6.0
1.0
3.67
-1.67
-1.33
-5.67
-6.67
1.67
-1.33
-5.33
-7.67
-0.67
-2.33
-5.33
-5.67
-6.67
-1.67
-2.67
1.67
3.67
4.67
35.0
56.0
61.67
8.67
-0.33
5.33
10.0
10.67
35.33
16.67
6.0
11.67
5.0
11.33
11.33
6.67
11.0
-4.33
9.33
-0.67
33.33
24.33
32.0
9.67
14.33
7.0
6.33
14.67
5.33
8.0
19.67
14.33
13.0
11.0
15.0
11.67
28.33
52.0
55.33
63.67
24.33
21.33
14.67
39.0
37.67
57.67
45.67
41.0
38.0
16.33
-2.67
17.67
6.0
7.0
24.33
7.33
9.67
22.0
24.0
13.67
-2.33
12.0
14.67
19.33
15.33
26.67
8.67
17.0
4.67
8.0
10.33
15.33
1.0
-0.67
8.33
-1.67
9.33
0.67
2.67
9.33
9.33
3.0
1.0
3.67
5.0
7.67
16.67
14.0
3.33
7.67
0.0
14.67
12.67
13.0
0.33
9.67
14.0
3.0
3.67
3.33
0.0
-2.33
7.33
-9.67
0.0
9.0
7.0
4.0
4.0
16.33
-8.67
1.33
-1.0
-2.0
1.0
-4.0
6.67
1.0
12.67
-3.0
0.0
-4.0
7.0
-2.0
3.67
3.33
0.33
5.0
1.33
3.67
4.67
1.33
3.0
2.33
1.33
3.67
3.33
3.33
7.33
-3.0
9.33
3.67
-0.33
-2.0
-4.67
1.0
6.67
-4.33
2.67
0.0
4.67
4.0
-1.33
5.0
4.67
0.67
-1.0
-0.67
6.33
6.67
-2.67