File: EDX Back Ups and Old Files/Spectra copy 3.3.23/Samples/Low pH SF 60C 2d/8.5.txt
0.0
142.67
22.33
34.33
7.33
-1.0
-1.0
0.67
1.33
0.67
-0.67
-0.67
-0.33
0.33
-0.67
0.67
1.33
0.67
-1.0
3.67
1.67
0.67
-4.33
4.33
8.33
8.33
1.0
3.67
3.0
4.33
1.67
4.0
3.0
3.0
0.33
5.67
2.67
9.33
0.33
2.33
0.67
8.67
0.33
1.33
1.67
5.0
5.33
-2.0
9.0
8.0
-2.67
-0.67
1.0
-3.0
0.0
3.67
1.0
2.67
7.33
-1.0
-0.67
5.67
4.67
-3.67
0.67
-0.33
-4.67
-3.0
3.33
2.67
-3.67
1.33
-1.67
0.67
-1.67
4.67
1.33
1.67
2.67
-1.0
-3.33
-0.33
-0.67
2.0
1.33
-2.0
-0.67
-0.67
-2.67
0.67
0.67
-0.67
-2.67
-2.0
-2.67
-3.0
1.0
-7.33
-4.33
-6.67
-5.33
-1.67
-1.0
-0.67
2.67
-1.0
-8.33
1.67
-0.33
6.67
-5.67
-8.0
-5.0
-4.0
4.67
-3.67
0.67
-2.67
-6.67
3.67
2.67
-5.33
-3.67
0.33
-11.33
-7.33
-1.67
-0.67
-5.67
7.33
1.67
-0.33
7.67
17.0
92.0
97.67
15.67
5.67
12.33
9.0
30.67
48.33
23.67
17.0
11.67
4.0
1.33
14.33
9.67
8.0
9.67
17.33
20.33
14.33
28.33
19.0
18.67
21.33
14.0
18.33
8.67
9.33
8.0
14.67
11.33
11.0
8.0
11.0
6.67
36.33
41.0
49.33
27.67
16.33
22.33
9.67
23.0
64.67
105.67
101.67
47.0
36.0
10.33
12.33
6.67
8.0
18.0
16.33
11.33
18.67
13.0
40.0
14.67
11.67
21.0
18.67
15.33
32.33
9.67
2.67
17.0
23.67
5.0
9.33
0.33
19.0
10.33
7.33
-3.67
3.33
-7.33
-4.33
4.33
6.33
11.0
0.0
-7.33
9.0
1.67
11.67
0.0
14.33
8.67
23.0
24.67
17.67
10.0
13.33
8.67
15.0
14.0
6.67
-8.67
14.0
-1.33
4.33
7.33
10.0
-4.0
4.0
8.0
-2.0
3.33
6.33
-3.67
6.0
6.0
-9.0
1.0
4.67
-5.0
7.67
-8.0
13.0
1.0
-3.0
-3.0
10.67
-0.67
1.33
9.0
6.33
-5.33
-0.33
5.33
-6.0
7.33
6.33
-1.33
-1.67
1.33
-2.67
-3.0
1.33
1.67
1.67
0.0
-5.67
-1.0
-4.33
-3.33
6.67
3.0
0.67
0.0
3.67
-1.0
6.67
-1.33
-2.0
2.33
6.33
-2.33
2.33