File: EDX Back Ups and Old Files/Spectra copy 3.3.23/Samples/Low pH SF 60C 2d/9.0.txt
0.0
-13.33
53.33
1.33
-2.67
1.0
0.0
0.67
-0.67
-0.33
-0.67
-0.67
-0.33
0.33
-0.67
-0.33
-0.67
0.67
0.0
3.67
-1.33
-1.33
-5.33
-1.67
0.33
6.33
1.0
-3.33
5.0
-2.67
1.67
3.0
0.0
9.0
5.33
1.67
0.67
2.33
-0.67
-1.67
-0.33
1.67
-5.67
5.33
7.67
6.0
5.33
8.0
1.0
1.0
-2.67
-2.67
2.0
1.0
5.0
1.67
2.0
2.67
4.33
-3.0
0.33
-0.33
-2.33
2.33
-0.33
2.67
2.33
0.0
1.33
0.67
6.33
3.33
-0.67
8.67
0.33
-0.33
-3.67
-1.33
3.67
5.0
-2.33
-3.33
3.33
-1.0
6.33
-5.0
2.33
-0.67
-5.67
5.67
0.67
1.33
-0.67
0.0
-6.67
0.0
-3.0
-3.33
-0.33
-0.67
-4.33
-0.67
-6.0
-5.67
-4.33
-5.0
-11.33
2.67
-2.33
-3.33
-3.67
-2.0
-4.0
-1.0
-1.33
-4.67
-2.33
-2.67
2.33
-5.33
0.67
3.67
-1.67
-2.67
-4.33
-5.33
-2.67
-1.67
-3.67
-1.67
4.67
0.67
7.67
37.0
93.0
114.67
26.67
0.67
-3.67
8.0
12.67
29.33
39.67
46.0
2.67
10.0
-2.67
13.33
9.67
9.0
14.67
25.33
27.33
26.33
23.33
4.0
8.67
19.33
12.0
5.33
2.67
-0.67
8.0
15.67
12.33
3.0
12.0
14.0
7.67
39.33
51.0
80.33
44.67
21.33
9.33
23.67
26.0
55.67
107.67
111.67
28.0
14.0
13.33
5.33
15.67
6.0
5.0
22.33
18.33
38.67
34.0
30.0
15.67
9.67
22.0
11.67
24.33
20.33
7.67
4.67
-2.0
18.67
6.0
2.33
3.33
14.0
13.33
3.33
2.33
4.33
6.67
-2.33
10.33
14.33
10.0
3.0
3.67
2.0
10.67
4.67
10.0
1.33
12.67
26.0
42.67
27.67
19.0
20.33
13.67
4.0
16.0
9.67
1.33
14.0
-2.33
5.33
-2.67
4.0
1.0
9.0
7.0
-7.0
7.33
-0.67
10.33
10.0
7.0
0.0
-9.0
12.67
5.0
3.67
-6.0
8.0
9.0
-2.0
-2.0
2.67
-2.67
1.33
4.0
-7.67
-10.33
4.67
-3.67
0.0
9.33
4.33
0.67
0.33
3.33
-1.67
-4.0
6.33
-2.33
7.67
-4.0
-4.67
3.0
0.67
-3.33
3.67
2.0
4.67
-3.0
0.67
3.0
-2.33
8.67
-4.0
-1.67
6.33
3.67
-3.67