File: EDX Back Ups and Old Files/Spectra copy 3.3.23/Samples/Low pH SF 60C 2d/background.txt
0.0
1823.33
1099.67
252.67
33.67
4.0
1.0
0.33
0.67
0.33
0.67
0.67
0.33
0.67
1.67
1.33
2.67
3.33
6.0
4.33
7.33
8.33
13.33
9.67
11.67
10.67
13.0
11.33
9.0
10.67
10.33
10.0
9.0
11.0
12.67
8.33
11.33
8.67
11.67
10.67
10.33
7.33
14.67
9.67
9.33
8.0
7.67
9.0
11.0
8.0
10.67
10.67
10.0
8.0
8.0
7.33
7.0
7.33
6.67
9.0
8.67
6.33
6.33
7.67
7.33
6.33
6.67
6.0
4.67
4.33
5.67
4.67
7.67
3.33
5.67
5.33
7.67
4.33
4.33
5.0
6.33
5.33
6.67
4.0
3.67
6.0
3.67
4.67
8.67
4.33
5.33
6.67
5.67
8.0
10.67
6.0
6.0
7.33
10.33
10.67
10.33
6.67
10.0
8.67
10.33
10.0
17.33
9.33
9.33
10.33
15.67
13.0
13.0
13.0
11.33
11.67
15.33
13.67
15.67
14.33
14.33
13.33
16.67
16.67
17.33
17.33
15.67
19.67
19.67
16.67
15.33
16.33
16.33
20.0
21.0
18.33
18.33
15.33
14.67
15.0
18.33
14.67
17.33
19.0
15.33
16.0
17.67
13.67
16.33
16.0
19.33
19.67
19.67
12.67
18.67
18.0
17.33
10.67
16.0
11.67
16.33
14.67
14.0
14.33
30.67
19.0
15.0
14.0
28.33
46.67
28.0
18.67
14.33
16.67
10.67
17.33
16.0
18.33
14.33
13.33
18.0
15.0
17.67
23.67
14.33
20.0
20.0
17.67
24.67
25.33
31.0
30.0
32.33
28.33
27.0
22.33
27.67
21.67
25.33
23.33
24.0
23.33
24.0
26.67
32.67
25.0
27.67
26.67
30.67
30.67
33.33
35.33
32.67
26.67
31.0
35.0
32.33
32.0
32.33
29.33
35.0
38.67
32.33
38.0
37.33
31.33
34.0
33.67
28.33
31.0
29.0
30.33
34.67
29.0
29.33
32.67
35.67
26.0
30.0
30.0
28.0
27.0
22.67
29.67
23.67
23.0
28.0
29.0
24.0
20.33
23.0
17.33
25.0
19.0
22.0
15.0
22.0
14.33
19.67
13.67
12.0
14.67
17.33
16.33
15.67
16.0
13.67
12.67
16.33
11.67
13.67
13.67
13.0
9.67
11.33
10.33
14.0
14.67
11.0
10.33
12.33
10.33
9.0
10.33
9.0
8.33
8.0
8.33
8.33
10.0
6.67
8.67
6.33
9.67